 Ge2H6TS___
 Ge2H6 transition state                                                                              
       10.0        250    85000.0        500      100.0
       No.     (cm-1)   Density   Sum
         1        0.0  3.000E-01  3.000E+00
         2       10.0  0.000E+00  3.000E+00
         3       20.0  2.000E-01  5.000E+00
         4       30.0  0.000E+00  5.000E+00
         5       40.0  2.000E-01  7.000E+00
         6       50.0  0.000E+00  7.000E+00
         7       60.0  2.000E-01  9.000E+00
         8       70.0  0.000E+00  9.000E+00
         9       80.0  0.000E+00  9.000E+00
        10       90.0  0.000E+00  9.000E+00
        11      100.0  8.000E-01  1.700E+01
        12      110.0  0.000E+00  1.700E+01
        13      120.0  4.000E-01  2.100E+01
        14      130.0  0.000E+00  2.100E+01
        15      140.0  9.000E-01  3.000E+01
        16      150.0  0.000E+00  3.000E+01
        17      160.0  6.000E-01  3.600E+01
        18      170.0  0.000E+00  3.600E+01
        19      180.0  2.000E-01  3.800E+01
        20      190.0  0.000E+00  3.800E+01
        21      200.0  1.700E+00  5.500E+01
        22      210.0  0.000E+00  5.500E+01
        23      220.0  6.000E-01  6.100E+01
        24      230.0  0.000E+00  6.100E+01
        25      240.0  1.800E+00  7.900E+01
        26      250.0  2.000E-01  8.100E+01
        27      260.0  1.000E+00  9.100E+01
        28      270.0  0.000E+00  9.100E+01
        29      280.0  6.000E-01  9.700E+01
        30      290.0  3.000E-01  1.000E+02
        31      300.0  2.600E+00  1.260E+02
        32      310.0  2.000E-01  1.280E+02
        33      320.0  1.000E+00  1.380E+02
        34      330.0  2.000E-01  1.400E+02
        35      340.0  2.900E+00  1.690E+02
        36      350.0  6.000E-01  1.750E+02
        37      360.0  1.400E+00  1.890E+02
        38      370.0  0.000E+00  1.890E+02
        39      380.0  1.000E+00  1.990E+02
        40      390.0  1.000E+00  2.090E+02
        41      400.0  3.700E+00  2.460E+02
        42      410.0  4.000E-01  2.500E+02
        43      420.0  2.000E+00  2.700E+02
        44      430.0  9.000E-01  2.790E+02
        45      440.0  4.400E+00  3.230E+02
        46      450.0  1.200E+00  3.350E+02
        47      460.0  2.400E+00  3.590E+02
        48      470.0  2.000E-01  3.610E+02
        49      480.0  2.000E+00  3.810E+02
        50      490.0  2.100E+00  4.020E+02
        51      500.0  4.800E+00  4.500E+02
        52      510.0  6.000E-01  4.560E+02
        53      520.0  3.400E+00  4.900E+02
        54      530.0  1.800E+00  5.080E+02
        55      540.0  6.300E+00  5.710E+02
        56      550.0  1.800E+00  5.890E+02
        57      560.0  4.400E+00  6.330E+02
        58      570.0  8.000E-01  6.410E+02
        59      580.0  3.700E+00  6.780E+02
        60      590.0  3.200E+00  7.100E+02
        61      600.0  6.500E+00  7.750E+02
        62      610.0  1.000E+00  7.850E+02
        63      620.0  6.000E+00  8.450E+02
        64      630.0  2.900E+00  8.740E+02
        65      640.0  8.400E+00  9.580E+02
        66      650.0  2.400E+00  9.820E+02
        67      660.0  6.800E+00  1.050E+03
        68      670.0  2.000E+00  1.070E+03
        69      680.0  5.800E+00  1.128E+03
        70      690.0  4.500E+00  1.173E+03
        71      700.0  8.600E+00  1.259E+03
        72      710.0  2.200E+00  1.281E+03
        73      720.0  9.100E+00  1.372E+03
        74      730.0  4.400E+00  1.416E+03
        75      740.0  1.110E+01  1.527E+03
        76      750.0  3.600E+00  1.563E+03
        77      760.0  9.800E+00  1.661E+03
        78      770.0  4.100E+00  1.702E+03
        79      780.0  8.500E+00  1.787E+03
        80      790.0  6.000E+00  1.847E+03
        81      800.0  1.070E+01  1.954E+03
        82      810.0  4.600E+00  2.000E+03
        83      820.0  1.280E+01  2.128E+03
        84      830.0  7.100E+00  2.199E+03
        85      840.0  1.410E+01  2.340E+03
        86      850.0  6.200E+00  2.402E+03
        87      860.0  1.370E+01  2.539E+03
        88      870.0  7.200E+00  2.611E+03
        89      880.0  1.260E+01  2.737E+03
        90      890.0  8.300E+00  2.820E+03
        91      900.0  1.500E+01  2.970E+03
        92      910.0  8.500E+00  3.055E+03
        93      920.0  1.790E+01  3.234E+03
        94      930.0  1.040E+01  3.338E+03
        95      940.0  1.810E+01  3.519E+03
        96      950.0  9.400E+00  3.613E+03
        97      960.0  1.920E+01  3.805E+03
        98      970.0  1.190E+01  3.924E+03
        99      980.0  1.780E+01  4.102E+03
       100      990.0  1.180E+01  4.220E+03
       101     1000.0  2.120E+01  4.432E+03
       102     1010.0  1.330E+01  4.565E+03
       103     1020.0  2.520E+01  4.817E+03
       104     1030.0  1.510E+01  4.968E+03
       105     1040.0  2.530E+01  5.221E+03
       106     1050.0  1.340E+01  5.355E+03
       107     1060.0  2.680E+01  5.623E+03
       108     1070.0  1.740E+01  5.797E+03
       109     1080.0  2.500E+01  6.047E+03
       110     1090.0  1.610E+01  6.208E+03
       111     1100.0  2.960E+01  6.504E+03
       112     1110.0  1.950E+01  6.699E+03
       113     1120.0  3.410E+01  7.040E+03
       114     1130.0  2.090E+01  7.249E+03
       115     1140.0  3.480E+01  7.597E+03
       116     1150.0  1.930E+01  7.790E+03
       117     1160.0  3.660E+01  8.156E+03
       118     1170.0  2.490E+01  8.405E+03
       119     1180.0  3.400E+01  8.745E+03
       120     1190.0  2.300E+01  8.975E+03
       121     1200.0  4.070E+01  9.382E+03
       122     1210.0  2.750E+01  9.657E+03
       123     1220.0  4.480E+01  1.010E+04
       124     1230.0  2.930E+01  1.040E+04
       125     1240.0  4.570E+01  1.086E+04
       126     1250.0  2.880E+01  1.114E+04
       127     1260.0  4.820E+01  1.162E+04
       128     1270.0  3.450E+01  1.197E+04
       129     1280.0  4.540E+01  1.242E+04
       130     1290.0  3.360E+01  1.276E+04
       131     1300.0  5.490E+01  1.331E+04
       132     1310.0  3.870E+01  1.370E+04
       133     1320.0  6.010E+01  1.430E+04
       134     1330.0  4.150E+01  1.471E+04
       135     1340.0  6.080E+01  1.532E+04
       136     1350.0  4.100E+01  1.573E+04
       137     1360.0  6.300E+01  1.636E+04
       138     1370.0  4.690E+01  1.683E+04
       139     1380.0  5.940E+01  1.742E+04
       140     1390.0  4.920E+01  1.792E+04
       141     1400.0  7.190E+01  1.863E+04
       142     1410.0  5.250E+01  1.916E+04
       143     1420.0  7.870E+01  1.995E+04
       144     1430.0  5.720E+01  2.052E+04
       145     1440.0  8.160E+01  2.133E+04
       146     1450.0  5.780E+01  2.191E+04
       147     1460.0  8.380E+01  2.275E+04
       148     1470.0  6.190E+01  2.337E+04
       149     1480.0  7.880E+01  2.416E+04
       150     1490.0  6.790E+01  2.484E+04
       151     1500.0  9.500E+01  2.579E+04
       152     1510.0  6.870E+01  2.647E+04
       153     1520.0  1.025E+02  2.750E+04
       154     1530.0  7.640E+01  2.826E+04
       155     1540.0  1.070E+02  2.933E+04
       156     1550.0  7.820E+01  3.011E+04
       157     1560.0  1.087E+02  3.120E+04
       158     1570.0  8.210E+01  3.202E+04
       159     1580.0  1.046E+02  3.307E+04
       160     1590.0  9.140E+01  3.398E+04
       161     1600.0  1.239E+02  3.522E+04
       162     1610.0  9.000E+01  3.612E+04
       163     1620.0  1.327E+02  3.745E+04
       164     1630.0  1.003E+02  3.845E+04
       165     1640.0  1.389E+02  3.984E+04
       166     1650.0  1.038E+02  4.088E+04
       167     1660.0  1.387E+02  4.226E+04
       168     1670.0  1.092E+02  4.336E+04
       169     1680.0  1.366E+02  4.472E+04
       170     1690.0  1.211E+02  4.593E+04
       171     1700.0  1.571E+02  4.750E+04
       172     1710.0  1.209E+02  4.871E+04
       173     1720.0  1.680E+02  5.039E+04
       174     1730.0  1.355E+02  5.175E+04
       175     1740.0  1.784E+02  5.353E+04
       176     1750.0  1.387E+02  5.492E+04
       177     1760.0  1.764E+02  5.668E+04
       178     1770.0  1.440E+02  5.812E+04
       179     1780.0  1.777E+02  5.990E+04
       180     1790.0  1.599E+02  6.150E+04
       181     1800.0  1.985E+02  6.348E+04
       182     1810.0  1.626E+02  6.511E+04
       183     1820.0  2.112E+02  6.722E+04
       184     1830.0  1.789E+02  6.901E+04
       185     1840.0  2.250E+02  7.126E+04
       186     1850.0  1.839E+02  7.310E+04
       187     1860.0  2.240E+02  7.534E+04
       188     1870.0  1.925E+02  7.727E+04
       189     1880.0  2.286E+02  7.955E+04
       190     1890.0  2.085E+02  8.164E+04
       191     1900.0  2.511E+02  8.415E+04
       192     1910.0  2.144E+02  8.629E+04
       193     1920.0  2.687E+02  8.898E+04
       194     1930.0  2.324E+02  9.130E+04
       195     1940.0  2.841E+02  9.414E+04
       196     1950.0  2.380E+02  9.652E+04
       197     1960.0  2.835E+02  9.936E+04
       198     1970.0  2.512E+02  1.019E+05
       199     1980.0  2.914E+02  1.048E+05
       200     1990.0  2.680E+02  1.075E+05
       201     2000.0  3.186E+02  1.107E+05
       202     2010.0  2.763E+02  1.134E+05
       203     2020.0  3.417E+02  1.168E+05
       204     2030.0  2.979E+02  1.198E+05
       205     2040.0  3.583E+02  1.234E+05
       206     2050.0  3.038E+02  1.264E+05
       207     2060.0  3.595E+02  1.300E+05
       208     2070.0  3.229E+02  1.333E+05
       209     2080.0  3.696E+02  1.370E+05
       210     2090.0  3.423E+02  1.404E+05
       211     2100.0  4.015E+02  1.444E+05
       212     2110.0  3.544E+02  1.479E+05
       213     2120.0  4.275E+02  1.522E+05
       214     2130.0  3.817E+02  1.560E+05
       215     2140.0  4.463E+02  1.605E+05
       216     2150.0  3.919E+02  1.644E+05
       217     2160.0  4.530E+02  1.689E+05
       218     2170.0  4.148E+02  1.731E+05
       219     2180.0  4.638E+02  1.777E+05
       220     2190.0  4.358E+02  1.821E+05
       221     2200.0  5.047E+02  1.871E+05
       222     2210.0  4.545E+02  1.917E+05
       223     2220.0  5.357E+02  1.970E+05
       224     2230.0  4.866E+02  2.019E+05
       225     2240.0  5.526E+02  2.074E+05
       226     2250.0  5.006E+02  2.124E+05
       227     2260.0  5.631E+02  2.181E+05
       228     2270.0  5.317E+02  2.234E+05
       229     2280.0  5.761E+02  2.291E+05
       230     2290.0  5.588E+02  2.347E+05
       231     2300.0  6.262E+02  2.410E+05
       232     2310.0  5.792E+02  2.468E+05
       233     2320.0  6.671E+02  2.534E+05
       234     2330.0  6.168E+02  2.596E+05
       235     2340.0  6.863E+02  2.665E+05
       236     2350.0  6.359E+02  2.728E+05
       237     2360.0  7.004E+02  2.798E+05
       238     2370.0  6.698E+02  2.865E+05
       239     2380.0  7.146E+02  2.937E+05
       240     2390.0  7.039E+02  3.007E+05
       241     2400.0  7.774E+02  3.085E+05
       242     2410.0  7.288E+02  3.158E+05
       243     2420.0  8.261E+02  3.240E+05
       244     2430.0  7.728E+02  3.318E+05
       245     2440.0  8.488E+02  3.403E+05
       246     2450.0  8.009E+02  3.483E+05
       247     2460.0  8.689E+02  3.570E+05
       248     2470.0  8.354E+02  3.653E+05
       249     2480.0  8.881E+02  3.742E+05
       250     2490.0  8.771E+02  3.830E+05
       251        0.0  3.000E-01  3.000E+00
       252      341.4  2.900E+00  1.690E+02
       253      682.7  5.800E+00  1.128E+03
       254     1024.1  2.520E+01  4.817E+03
       255     1365.5  6.300E+01  1.636E+04
       256     1706.8  1.571E+02  4.750E+04
       257     2048.2  3.583E+02  1.234E+05
       258     2389.6  7.146E+02  2.937E+05
       259     2730.9  1.480E+03  6.699E+05
       260     3072.3  2.934E+03  1.411E+06
       261     3413.7  5.617E+03  2.841E+06
       262     3755.0  1.039E+04  5.502E+06
       263     4096.4  1.839E+04  1.029E+07
       264     4437.8  3.207E+04  1.870E+07
       265     4779.1  5.407E+04  3.307E+07
       266     5120.5  9.065E+04  5.803E+07
       267     5461.8  1.465E+05  9.804E+07
       268     5803.2  2.364E+05  1.625E+08
       269     6144.6  3.688E+05  2.644E+08
       270     6485.9  5.742E+05  4.234E+08
       271     6827.3  8.766E+05  6.678E+08
       272     7168.7  1.318E+06  1.039E+09
       273     7510.0  1.987E+06  1.614E+09
       274     7851.4  2.942E+06  2.447E+09
       275     8192.8  4.272E+06  3.667E+09
       276     8534.1  6.190E+06  5.437E+09
       277     8875.5  8.850E+06  7.980E+09
       278     9216.9  1.254E+07  1.160E+10
       279     9558.2  1.769E+07  1.672E+10
       280     9899.6  2.462E+07  2.388E+10
       281    10241.0  3.444E+07  3.419E+10
       282    10582.3  4.745E+07  4.807E+10
       283    10923.7  6.481E+07  6.709E+10
       284    11265.1  8.789E+07  9.299E+10
       285    11606.4  1.188E+08  1.280E+11
       286    11947.8  1.590E+08  1.751E+11
       287    12289.2  2.123E+08  2.381E+11
       288    12630.5  2.839E+08  3.248E+11
       289    12971.9  3.746E+08  4.365E+11
       290    13313.3  4.915E+08  5.835E+11
       291    13654.6  6.428E+08  7.760E+11
       292    13996.0  8.353E+08  1.027E+12
       293    14337.3  1.082E+09  1.352E+12
       294    14678.7  1.395E+09  1.773E+12
       295    15020.1  1.804E+09  2.332E+12
       296    15361.4  2.306E+09  3.030E+12
       297    15702.8  2.939E+09  3.921E+12
       298    16044.2  3.727E+09  5.053E+12
       299    16385.5  4.714E+09  6.487E+12
       300    16726.9  5.939E+09  8.296E+12
       301    17068.3  7.456E+09  1.057E+13
       302    17409.6  9.335E+09  1.342E+13
       303    17751.0  1.172E+10  1.711E+13
       304    18092.4  1.457E+10  2.157E+13
       305    18433.7  1.807E+10  2.712E+13
       306    18775.1  2.234E+10  3.399E+13
       307    19116.5  2.754E+10  4.246E+13
       308    19457.8  3.386E+10  5.290E+13
       309    19799.2  4.151E+10  6.571E+13
       310    20140.6  5.106E+10  8.191E+13
       311    20481.9  6.229E+10  1.012E+14
       312    20823.3  7.579E+10  1.246E+14
       313    21164.7  9.198E+10  1.532E+14
       314    21506.0  1.114E+11  1.877E+14
       315    21847.4  1.346E+11  2.295E+14
       316    22188.8  1.622E+11  2.800E+14
       317    22530.1  1.962E+11  3.427E+14
       318    22871.5  2.355E+11  4.161E+14
       319    23212.9  2.820E+11  5.041E+14
       320    23554.2  3.371E+11  6.093E+14
       321    23895.6  4.021E+11  7.350E+14
       322    24236.9  4.788E+11  8.848E+14
       323    24578.3  5.690E+11  1.063E+15
       324    24919.7  6.749E+11  1.274E+15
       325    25261.0  8.031E+11  1.533E+15
       326    25602.4  9.492E+11  1.831E+15
       327    25943.8  1.120E+12  2.183E+15
       328    26285.1  1.319E+12  2.598E+15
       329    26626.5  1.551E+12  3.086E+15
       330    26967.9  1.821E+12  3.659E+15
       331    27309.2  2.134E+12  4.332E+15
       332    27650.6  2.509E+12  5.145E+15
       333    27992.0  2.932E+12  6.070E+15
       334    28333.3  3.421E+12  7.150E+15
       335    28674.7  3.985E+12  8.410E+15
       336    29016.1  4.636E+12  9.876E+15
       337    29357.4  5.385E+12  1.158E+16
       338    29698.8  6.247E+12  1.356E+16
       339    30040.2  7.268E+12  1.592E+16
       340    30381.5  8.409E+12  1.859E+16
       341    30722.9  9.716E+12  2.167E+16
       342    31064.3  1.121E+13  2.523E+16
       343    31405.6  1.292E+13  2.934E+16
       344    31747.0  1.487E+13  3.406E+16
       345    32088.4  1.710E+13  3.950E+16
       346    32429.7  1.963E+13  4.575E+16
       347    32771.1  2.261E+13  5.314E+16
       348    33112.4  2.590E+13  6.139E+16
       349    33453.8  2.963E+13  7.084E+16
       350    33795.2  3.387E+13  8.164E+16
       351    34136.5  3.867E+13  9.398E+16
       352    34477.9  4.410E+13  1.081E+17
       353    34819.3  5.024E+13  1.241E+17
       354    35160.6  5.739E+13  1.429E+17
       355    35502.0  6.525E+13  1.638E+17
       356    35843.4  7.411E+13  1.875E+17
       357    36184.7  8.408E+13  2.144E+17
       358    36526.1  9.531E+13  2.449E+17
       359    36867.5  1.079E+14  2.795E+17
       360    37208.8  1.221E+14  3.186E+17
       361    37550.2  1.385E+14  3.643E+17
       362    37891.6  1.564E+14  4.144E+17
       363    38232.9  1.765E+14  4.711E+17
       364    38574.3  1.989E+14  5.349E+17
       365    38915.7  2.240E+14  6.069E+17
       366    39257.0  2.521E+14  6.878E+17
       367    39598.4  2.834E+14  7.789E+17
       368    39939.8  3.183E+14  8.813E+17
       369    40281.1  3.585E+14  9.998E+17
       370    40622.5  4.020E+14  1.129E+18
       371    40963.9  4.505E+14  1.274E+18
       372    41305.2  5.044E+14  1.437E+18
       373    41646.6  5.644E+14  1.618E+18
       374    41988.0  6.309E+14  1.822E+18
       375    42329.3  7.048E+14  2.049E+18
       376    42670.7  7.893E+14  2.311E+18
       377    43012.0  8.804E+14  2.595E+18
       378    43353.4  9.812E+14  2.911E+18
       379    43694.8  1.093E+15  3.264E+18
       380    44036.1  1.216E+15  3.657E+18
       381    44377.5  1.353E+15  4.094E+18
       382    44718.9  1.504E+15  4.580E+18
       383    45060.2  1.675E+15  5.137E+18
       384    45401.6  1.859E+15  5.738E+18
       385    45743.0  2.063E+15  6.405E+18
       386    46084.3  2.286E+15  7.145E+18
       387    46425.7  2.533E+15  7.965E+18
       388    46767.1  2.804E+15  8.873E+18
       389    47108.4  3.102E+15  9.877E+18
       390    47449.8  3.430E+15  1.099E+19
       391    47791.2  3.801E+15  1.225E+19
       392    48132.5  4.197E+15  1.361E+19
       393    48473.9  4.632E+15  1.512E+19
       394    48815.3  5.109E+15  1.677E+19
       395    49156.6  5.632E+15  1.860E+19
       396    49498.0  6.204E+15  2.061E+19
       397    49839.4  6.831E+15  2.283E+19
       398    50180.7  7.539E+15  2.535E+19
       399    50522.1  8.291E+15  2.804E+19
       400    50863.5  9.113E+15  3.100E+19
       401    51204.8  1.001E+16  3.426E+19
       402    51546.2  1.099E+16  3.783E+19
       403    51887.6  1.206E+16  4.175E+19
       404    52228.9  1.323E+16  4.606E+19
       405    52570.3  1.455E+16  5.092E+19
       406    52911.6  1.594E+16  5.611E+19
       407    53253.0  1.745E+16  6.179E+19
       408    53594.4  1.910E+16  6.801E+19
       409    53935.7  2.090E+16  7.481E+19
       410    54277.1  2.286E+16  8.225E+19
       411    54618.5  2.498E+16  9.039E+19
       412    54959.8  2.729E+16  9.929E+19
       413    55301.2  2.988E+16  1.093E+20
       414    55642.6  3.261E+16  1.199E+20
       415    55983.9  3.557E+16  1.315E+20
       416    56325.3  3.879E+16  1.442E+20
       417    56666.7  4.227E+16  1.580E+20
       418    57008.0  4.605E+16  1.730E+20
       419    57349.4  5.015E+16  1.894E+20
       420    57690.8  5.472E+16  2.077E+20
       421    58032.1  5.953E+16  2.272E+20
       422    58373.5  6.474E+16  2.483E+20
       423    58714.9  7.037E+16  2.713E+20
       424    59056.2  7.646E+16  2.963E+20
       425    59397.6  8.304E+16  3.234E+20
       426    59739.0  9.016E+16  3.529E+20
       427    60080.3  9.807E+16  3.858E+20
       428    60421.7  1.064E+17  4.206E+20
       429    60763.1  1.154E+17  4.583E+20
       430    61104.4  1.250E+17  4.992E+20
       431    61445.8  1.355E+17  5.435E+20
       432    61787.1  1.467E+17  5.915E+20
       433    62128.5  1.588E+17  6.435E+20
       434    62469.9  1.719E+17  6.998E+20
       435    62811.2  1.864E+17  7.625E+20
       436    63152.6  2.015E+17  8.285E+20
       437    63494.0  2.179E+17  8.998E+20
       438    63835.3  2.354E+17  9.769E+20
       439    64176.7  2.543E+17  1.060E+21
       440    64518.1  2.746E+17  1.150E+21
       441    64859.4  2.964E+17  1.247E+21
       442    65200.8  3.205E+17  1.355E+21
       443    65542.2  3.457E+17  1.469E+21
       444    65883.5  3.728E+17  1.591E+21
       445    66224.9  4.018E+17  1.723E+21
       446    66566.3  4.329E+17  1.865E+21
       447    66907.6  4.663E+17  2.018E+21
       448    67249.0  5.021E+17  2.182E+21
       449    67590.4  5.417E+17  2.365E+21
       450    67931.7  5.829E+17  2.556E+21
       451    68273.1  6.270E+17  2.762E+21
       452    68614.5  6.743E+17  2.984E+21
       453    68955.8  7.248E+17  3.222E+21
       454    69297.2  7.790E+17  3.477E+21
       455    69638.6  8.369E+17  3.752E+21
       456    69979.9  8.988E+17  4.048E+21
       457    70321.3  9.670E+17  4.374E+21
       458    70662.7  1.038E+18  4.715E+21
       459    71004.0  1.114E+18  5.081E+21
       460    71345.4  1.195E+18  5.474E+21
       461    71686.7  1.281E+18  5.895E+21
       462    72028.1  1.373E+18  6.347E+21
       463    72369.5  1.472E+18  6.831E+21
       464    72710.8  1.580E+18  7.365E+21
       465    73052.2  1.693E+18  7.922E+21
       466    73393.6  1.812E+18  8.518E+21
       467    73734.9  1.940E+18  9.157E+21
       468    74076.3  2.076E+18  9.840E+21
       469    74417.7  2.221E+18  1.057E+22
       470    74759.0  2.376E+18  1.135E+22
       471    75100.4  2.546E+18  1.221E+22
       472    75441.8  2.721E+18  1.311E+22
       473    75783.1  2.908E+18  1.407E+22
       474    76124.5  3.107E+18  1.509E+22
       475    76465.9  3.319E+18  1.618E+22
       476    76807.2  3.544E+18  1.735E+22
       477    77148.6  3.784E+18  1.860E+22
       478    77490.0  4.038E+18  1.993E+22
       479    77831.3  4.317E+18  2.139E+22
       480    78172.7  4.605E+18  2.291E+22
       481    78514.1  4.911E+18  2.453E+22
       482    78855.4  5.237E+18  2.626E+22
       483    79196.8  5.582E+18  2.810E+22
       484    79538.2  5.949E+18  3.006E+22
       485    79879.5  6.338E+18  3.215E+22
       486    80220.9  6.763E+18  3.444E+22
       487    80562.2  7.202E+18  3.682E+22
       488    80903.6  7.668E+18  3.935E+22
       489    81245.0  8.161E+18  4.204E+22
       490    81586.3  8.685E+18  4.490E+22
       491    81927.7  9.239E+18  4.795E+22
       492    82269.1  9.827E+18  5.120E+22
       493    82610.4  1.047E+19  5.475E+22
       494    82951.8  1.113E+19  5.842E+22
       495    83293.2  1.183E+19  6.233E+22
       496    83634.5  1.257E+19  6.648E+22
       497    83975.9  1.336E+19  7.089E+22
       498    84317.3  1.419E+19  7.558E+22
       499    84658.6  1.507E+19  8.055E+22
       500    85000.0  1.600E+19  8.584E+22
