**************INPUT DATA SUMMARY**************
%%%%%%%%%%%%%%%%%%%%%%%%%%%%%%%%%%%%%%%%%%%%%%%%%%%%%%%%%%%%%%%%%%%%%%%%%%%%%%

                                      Jason A. Sonk & John R. Barker
                ktools-  2023         University of Michigan
                                      Ann Arbor, MI 48109-2143
                  Mar 2023            Contact:
                                        jrbarker@umich.edu
                                        (734) 763 6239

              http://aoss.engin.umich.edu/multiwell/

%%%%%%%%%%%%%%%%%%%%%%%%%%%%%%%%%%%%%%%%%%%%%%%%%%%%%%%%%%%%%%%%%%%%%%%%%%%%%%

        Suggested Literature Citation:

        a) J.R. Barker, T.L. Nguyen, J.F. Stanton, C. Aieta, M. Ceotto,
       F. Gabas, T.J.D. Kumar, C.G.L.Li, L.L.Lohr, A. Maranzana,
       N.F. Ortiz, J.M. Preses, J.M. Simmie, J.A. Sonk, and P.J. Stimac; 
       MultiWell- 2023   Software Suite; University of Michigan, 
       Ann Arbor, Michigan, USA, Mar 2023; 
       http://clasp-research.engin.umich.edu/multiwell/.

        b) J.R. Barker, Int. J. Chem. Kinetics, 33, 232-45 (2001)



%%%%%%%%%%%%%%%%%%%%%%%%%%%%%%%%%%%%%%%%%%%%%%%%%%%%%%%%%%%%%%%%%%%%%%%%%%%%%%

%%%%%%%%%%%%%%%%%%%%%%%%%%%%%%%%%%%%%%%%%%%%%%%%%%%%%%%%%%%%%%%%%%%%%%%%%%%%%%

                                      Jason A. Sonk & John R. Barker
                ktools-  2023         University of Michigan
                                      Ann Arbor, MI 48109-2143
                  
**************INPUT DATA SUMMARY**************
 ktools-uts.dens
 J-summed Density and Sum of states.
       10.0        301    40000.0        902      466.5
       No.    E(cm-1)    Density    Sum   [Energy at TOP of energy grains]
         1        0.0  5.07500E+02  5.07500E+03
         2       10.0  2.02910E+03  2.53660E+04
         3       20.0  6.93700E+02  3.23030E+04
         4       30.0  2.25240E+03  5.48270E+04
         5       40.0  4.36990E+03  9.85260E+04
         6       50.0  7.88350E+03  1.77361E+05
         7       60.0  1.54041E+04  3.31402E+05
         8       70.0  7.38680E+03  4.05270E+05
         9       80.0  2.50158E+04  6.55428E+05
        10       90.0  2.92683E+04  9.48111E+05
        11      100.0  3.91363E+04  1.33947E+06
        12      110.0  4.39774E+04  1.77925E+06
        13      120.0  4.34373E+04  2.21362E+06
        14      130.0  4.27673E+04  2.64129E+06
        15      140.0  5.81882E+04  3.22318E+06
        16      150.0  7.00507E+04  3.92368E+06
        17      160.0  9.08559E+04  4.83224E+06
        18      170.0  6.90200E+04  5.52244E+06
        19      180.0  1.08824E+05  6.61068E+06
        20      190.0  9.55511E+04  7.56619E+06
        21      200.0  8.99296E+04  8.46549E+06
        22      210.0  1.05862E+05  9.52411E+06
        23      220.0  1.27909E+05  1.08032E+07
        24      230.0  1.34771E+05  1.21509E+07
        25      240.0  1.16568E+05  1.33166E+07
        26      250.0  1.19326E+05  1.45098E+07
        27      260.0  1.25624E+05  1.57661E+07
        28      270.0  1.33442E+05  1.71005E+07
        29      280.0  1.40886E+05  1.85094E+07
        30      290.0  1.46860E+05  1.99780E+07
        31      300.0  1.53649E+05  2.15145E+07
        32      310.0  1.60649E+05  2.31209E+07
        33      320.0  1.67478E+05  2.47957E+07
        34      330.0  1.76531E+05  2.65610E+07
        35      340.0  1.85336E+05  2.84144E+07
        36      350.0  1.93393E+05  3.03483E+07
        37      360.0  2.01608E+05  3.23644E+07
        38      370.0  2.12036E+05  3.44848E+07
        39      380.0  2.20814E+05  3.66929E+07
        40      390.0  2.32668E+05  3.90196E+07
        41      400.0  2.42840E+05  4.14480E+07
        42      410.0  2.51875E+05  4.39667E+07
        43      420.0  2.62810E+05  4.65948E+07
        44      430.0  2.70619E+05  4.93010E+07
        45      440.0  2.81662E+05  5.21176E+07
        46      450.0  2.91514E+05  5.50328E+07
        47      460.0  3.02293E+05  5.80557E+07
        48      470.0  3.13550E+05  6.11912E+07
        49      480.0  3.25588E+05  6.44471E+07
        50      490.0  3.37230E+05  6.78194E+07
        51      500.0  3.47157E+05  7.12909E+07
        52      510.0  3.61478E+05  7.49057E+07
        53      520.0  3.74001E+05  7.86457E+07
        54      530.0  3.85716E+05  8.25029E+07
        55      540.0  3.98065E+05  8.64835E+07
        56      550.0  4.11029E+05  9.05938E+07
        57      560.0  4.22431E+05  9.48181E+07
        58      570.0  4.38242E+05  9.92006E+07
        59      580.0  4.53343E+05  1.03734E+08
        60      590.0  4.62771E+05  1.08362E+08
        61      600.0  4.76499E+05  1.13127E+08
        62      610.0  4.86530E+05  1.17992E+08
        63      620.0  4.99604E+05  1.22988E+08
        64      630.0  5.14765E+05  1.28136E+08
        65      640.0  5.31408E+05  1.33450E+08
        66      650.0  5.47558E+05  1.38925E+08
        67      660.0  5.61181E+05  1.44537E+08
        68      670.0  5.78281E+05  1.50320E+08
        69      680.0  5.90586E+05  1.56226E+08
        70      690.0  6.06492E+05  1.62291E+08
        71      700.0  6.19337E+05  1.68484E+08
        72      710.0  6.36904E+05  1.74853E+08
        73      720.0  6.54776E+05  1.81401E+08
        74      730.0  6.71364E+05  1.88115E+08
        75      740.0  6.88536E+05  1.95000E+08
        76      750.0  7.02502E+05  2.02025E+08
        77      760.0  7.21203E+05  2.09237E+08
        78      770.0  7.36094E+05  2.16598E+08
        79      780.0  7.53506E+05  2.24133E+08
        80      790.0  7.73146E+05  2.31864E+08
        81      800.0  7.89093E+05  2.39755E+08
        82      810.0  8.08905E+05  2.47844E+08
        83      820.0  8.25752E+05  2.56102E+08
        84      830.0  8.48960E+05  2.64592E+08
        85      840.0  8.66307E+05  2.73255E+08
        86      850.0  8.92033E+05  2.82175E+08
        87      860.0  9.09454E+05  2.91269E+08
        88      870.0  9.31849E+05  3.00588E+08
        89      880.0  9.53079E+05  3.10119E+08
        90      890.0  9.74574E+05  3.19864E+08
        91      900.0  9.97444E+05  3.29839E+08
        92      910.0  1.01614E+06  3.40000E+08
        93      920.0  1.04537E+06  3.50454E+08
        94      930.0  1.06759E+06  3.61130E+08
        95      940.0  1.09040E+06  3.72034E+08
        96      950.0  1.11393E+06  3.83173E+08
        97      960.0  1.14596E+06  3.94633E+08
        98      970.0  1.17078E+06  4.06341E+08
        99      980.0  1.19681E+06  4.18309E+08
       100      990.0  1.22498E+06  4.30559E+08
       101     1000.0  1.25291E+06  4.43088E+08
       102     1010.0  1.28086E+06  4.55896E+08
       103     1020.0  1.30879E+06  4.68984E+08
       104     1030.0  1.34292E+06  4.82413E+08
       105     1040.0  1.37221E+06  4.96135E+08
       106     1050.0  1.40170E+06  5.10152E+08
       107     1060.0  1.43423E+06  5.24495E+08
       108     1070.0  1.46755E+06  5.39170E+08
       109     1080.0  1.50330E+06  5.54203E+08
       110     1090.0  1.53129E+06  5.69516E+08
       111     1100.0  1.57109E+06  5.85227E+08
       112     1110.0  1.60690E+06  6.01296E+08
       113     1120.0  1.64560E+06  6.17752E+08
       114     1130.0  1.67813E+06  6.34533E+08
       115     1140.0  1.71411E+06  6.51675E+08
       116     1150.0  1.75474E+06  6.69222E+08
       117     1160.0  1.79069E+06  6.87129E+08
       118     1170.0  1.82583E+06  7.05387E+08
       119     1180.0  1.86212E+06  7.24008E+08
       120     1190.0  1.90536E+06  7.43062E+08
       121     1200.0  1.94221E+06  7.62484E+08
       122     1210.0  1.97891E+06  7.82273E+08
       123     1220.0  2.02031E+06  8.02476E+08
       124     1230.0  2.06041E+06  8.23080E+08
       125     1240.0  2.10309E+06  8.44111E+08
       126     1250.0  2.13828E+06  8.65494E+08
       127     1260.0  2.18307E+06  8.87325E+08
       128     1270.0  2.23019E+06  9.09627E+08
       129     1280.0  2.27029E+06  9.32330E+08
       130     1290.0  2.31546E+06  9.55484E+08
       131     1300.0  2.36267E+06  9.79111E+08
       132     1310.0  2.40572E+06  1.00317E+09
       133     1320.0  2.45101E+06  1.02768E+09
       134     1330.0  2.48642E+06  1.05254E+09
       135     1340.0  2.53297E+06  1.07787E+09
       136     1350.0  2.57451E+06  1.10362E+09
       137     1360.0  2.61932E+06  1.12981E+09
       138     1370.0  2.66505E+06  1.15646E+09
       139     1380.0  2.71212E+06  1.18358E+09
       140     1390.0  2.76543E+06  1.21124E+09
       141     1400.0  2.81803E+06  1.23942E+09
       142     1410.0  2.87188E+06  1.26814E+09
       143     1420.0  2.92239E+06  1.29736E+09
       144     1430.0  2.97259E+06  1.32709E+09
       145     1440.0  3.02564E+06  1.35734E+09
       146     1450.0  3.08019E+06  1.38814E+09
       147     1460.0  3.13722E+06  1.41952E+09
       148     1470.0  3.19025E+06  1.45142E+09
       149     1480.0  3.23902E+06  1.48381E+09
       150     1490.0  3.29434E+06  1.51675E+09
       151     1500.0  3.35251E+06  1.55028E+09
       152     1510.0  3.40256E+06  1.58430E+09
       153     1520.0  3.45264E+06  1.61883E+09
       154     1530.0  3.52372E+06  1.65407E+09
       155     1540.0  3.57147E+06  1.68978E+09
       156     1550.0  3.63364E+06  1.72612E+09
       157     1560.0  3.69092E+06  1.76303E+09
       158     1570.0  3.73760E+06  1.80040E+09
       159     1580.0  3.79435E+06  1.83835E+09
       160     1590.0  3.86535E+06  1.87700E+09
       161     1600.0  3.91833E+06  1.91618E+09
       162     1610.0  3.98166E+06  1.95600E+09
       163     1620.0  4.04075E+06  1.99641E+09
       164     1630.0  4.11393E+06  2.03755E+09
       165     1640.0  4.18151E+06  2.07936E+09
       166     1650.0  4.23792E+06  2.12174E+09
       167     1660.0  4.31058E+06  2.16485E+09
       168     1670.0  4.37153E+06  2.20856E+09
       169     1680.0  4.41984E+06  2.25276E+09
       170     1690.0  4.49829E+06  2.29774E+09
       171     1700.0  4.56698E+06  2.34341E+09
       172     1710.0  4.61646E+06  2.38958E+09
       173     1720.0  4.69743E+06  2.43655E+09
       174     1730.0  4.76602E+06  2.48421E+09
       175     1740.0  4.83763E+06  2.53259E+09
       176     1750.0  4.90781E+06  2.58167E+09
       177     1760.0  4.96481E+06  2.63131E+09
       178     1770.0  5.03077E+06  2.68162E+09
       179     1780.0  5.10778E+06  2.73270E+09
       180     1790.0  5.16398E+06  2.78434E+09
       181     1800.0  5.23800E+06  2.83672E+09
       182     1810.0  5.30090E+06  2.88973E+09
       183     1820.0  5.36857E+06  2.94341E+09
       184     1830.0  5.44139E+06  2.99783E+09
       185     1840.0  5.50676E+06  3.05290E+09
       186     1850.0  5.59007E+06  3.10880E+09
       187     1860.0  5.67388E+06  3.16554E+09
       188     1870.0  5.75276E+06  3.22306E+09
       189     1880.0  5.83036E+06  3.28137E+09
       190     1890.0  5.91852E+06  3.34055E+09
       191     1900.0  6.00526E+06  3.40060E+09
       192     1910.0  6.09565E+06  3.46156E+09
       193     1920.0  6.18097E+06  3.52337E+09
       194     1930.0  6.27111E+06  3.58608E+09
       195     1940.0  6.36026E+06  3.64968E+09
       196     1950.0  6.44196E+06  3.71410E+09
       197     1960.0  6.52739E+06  3.77938E+09
       198     1970.0  6.62739E+06  3.84565E+09
       199     1980.0  6.71163E+06  3.91277E+09
       200     1990.0  6.79312E+06  3.98070E+09
       201     2000.0  6.89596E+06  4.04966E+09
       202     2010.0  6.97906E+06  4.11945E+09
       203     2020.0  7.07773E+06  4.19023E+09
       204     2030.0  7.16191E+06  4.26185E+09
       205     2040.0  7.26355E+06  4.33448E+09
       206     2050.0  7.35034E+06  4.40798E+09
       207     2060.0  7.45799E+06  4.48256E+09
       208     2070.0  7.56421E+06  4.55821E+09
       209     2080.0  7.64481E+06  4.63465E+09
       210     2090.0  7.75019E+06  4.71216E+09
       211     2100.0  7.86140E+06  4.79077E+09
       212     2110.0  7.96669E+06  4.87044E+09
       213     2120.0  8.07818E+06  4.95122E+09
       214     2130.0  8.19401E+06  5.03316E+09
       215     2140.0  8.27818E+06  5.11594E+09
       216     2150.0  8.41142E+06  5.20006E+09
       217     2160.0  8.49882E+06  5.28504E+09
       218     2170.0  8.60763E+06  5.37112E+09
       219     2180.0  8.72051E+06  5.45832E+09
       220     2190.0  8.82505E+06  5.54658E+09
       221     2200.0  8.92960E+06  5.63587E+09
       222     2210.0  9.06889E+06  5.72656E+09
       223     2220.0  9.16539E+06  5.81821E+09
       224     2230.0  9.29926E+06  5.91121E+09
       225     2240.0  9.40873E+06  6.00529E+09
       226     2250.0  9.52621E+06  6.10056E+09
       227     2260.0  9.65613E+06  6.19712E+09
       228     2270.0  9.77480E+06  6.29487E+09
       229     2280.0  9.89648E+06  6.39383E+09
       230     2290.0  1.00380E+07  6.49421E+09
       231     2300.0  1.01304E+07  6.59551E+09
       232     2310.0  1.02869E+07  6.69838E+09
       233     2320.0  1.04125E+07  6.80251E+09
       234     2330.0  1.05378E+07  6.90789E+09
       235     2340.0  1.06748E+07  7.01464E+09
       236     2350.0  1.07916E+07  7.12255E+09
       237     2360.0  1.09248E+07  7.23180E+09
       238     2370.0  1.10627E+07  7.34243E+09
       239     2380.0  1.11773E+07  7.45420E+09
       240     2390.0  1.13504E+07  7.56770E+09
       241     2400.0  1.14469E+07  7.68217E+09
       242     2410.0  1.16070E+07  7.79824E+09
       243     2420.0  1.17335E+07  7.91558E+09
       244     2430.0  1.18866E+07  8.03444E+09
       245     2440.0  1.20272E+07  8.15471E+09
       246     2450.0  1.21786E+07  8.27650E+09
       247     2460.0  1.22975E+07  8.39948E+09
       248     2470.0  1.24676E+07  8.52415E+09
       249     2480.0  1.25868E+07  8.65002E+09
       250     2490.0  1.27571E+07  8.77759E+09
       251     2500.0  1.29003E+07  8.90659E+09
       252     2510.0  1.30703E+07  9.03730E+09
       253     2520.0  1.31992E+07  9.16929E+09
       254     2530.0  1.33892E+07  9.30318E+09
       255     2540.0  1.35552E+07  9.43873E+09
       256     2550.0  1.36924E+07  9.57566E+09
       257     2560.0  1.38848E+07  9.71450E+09
       258     2570.0  1.40108E+07  9.85461E+09
       259     2580.0  1.42121E+07  9.99673E+09
       260     2590.0  1.43622E+07  1.01404E+10
       261     2600.0  1.45463E+07  1.02858E+10
       262     2610.0  1.46995E+07  1.04328E+10
       263     2620.0  1.48881E+07  1.05817E+10
       264     2630.0  1.50376E+07  1.07321E+10
       265     2640.0  1.52484E+07  1.08846E+10
       266     2650.0  1.53964E+07  1.10385E+10
       267     2660.0  1.56046E+07  1.11946E+10
       268     2670.0  1.57732E+07  1.13523E+10
       269     2680.0  1.59651E+07  1.15119E+10
       270     2690.0  1.61540E+07  1.16735E+10
       271     2700.0  1.63393E+07  1.18369E+10
       272     2710.0  1.65238E+07  1.20021E+10
       273     2720.0  1.67221E+07  1.21693E+10
       274     2730.0  1.69209E+07  1.23385E+10
       275     2740.0  1.71122E+07  1.25097E+10
       276     2750.0  1.73151E+07  1.26828E+10
       277     2760.0  1.75337E+07  1.28582E+10
       278     2770.0  1.77230E+07  1.30354E+10
       279     2780.0  1.79101E+07  1.32145E+10
       280     2790.0  1.81679E+07  1.33962E+10
       281     2800.0  1.83225E+07  1.35794E+10
       282     2810.0  1.85789E+07  1.37652E+10
       283     2820.0  1.87434E+07  1.39526E+10
       284     2830.0  1.90055E+07  1.41427E+10
       285     2840.0  1.91853E+07  1.43345E+10
       286     2850.0  1.94281E+07  1.45288E+10
       287     2860.0  1.96086E+07  1.47249E+10
       288     2870.0  1.98740E+07  1.49236E+10
       289     2880.0  2.00573E+07  1.51242E+10
       290     2890.0  2.03015E+07  1.53272E+10
       291     2900.0  2.05079E+07  1.55323E+10
       292     2910.0  2.07478E+07  1.57398E+10
       293     2920.0  2.09472E+07  1.59492E+10
       294     2930.0  2.11848E+07  1.61611E+10
       295     2940.0  2.14337E+07  1.63754E+10
       296     2950.0  2.16282E+07  1.65917E+10
       297     2960.0  2.18986E+07  1.68107E+10
       298     2970.0  2.21092E+07  1.70318E+10
       299     2980.0  2.23531E+07  1.72553E+10
       300     2990.0  2.25665E+07  1.74810E+10
       301     3000.0  2.28528E+07  1.77095E+10
       302        0.0  5.07500E+02  5.07500E+03
       303       66.7  1.54041E+04  3.31402E+05
       304      133.3  4.27673E+04  2.64129E+06
       305      200.0  8.99296E+04  8.46549E+06
       306      266.7  1.25624E+05  1.57661E+07
       307      333.3  1.76531E+05  2.65610E+07
       308      400.0  2.42840E+05  4.14480E+07
       309      466.7  3.02293E+05  5.80557E+07
       310      533.3  3.85716E+05  8.25029E+07
       311      600.0  4.76499E+05  1.13127E+08
       312      666.7  5.61181E+05  1.44537E+08
       313      733.3  6.71364E+05  1.88115E+08
       314      800.0  7.89093E+05  2.39755E+08
       315      866.7  9.09454E+05  2.91269E+08
       316      933.3  1.06759E+06  3.61130E+08
       317     1000.0  1.25291E+06  4.43088E+08
       318     1066.7  1.43423E+06  5.24495E+08
       319     1133.3  1.67813E+06  6.34533E+08
       320     1200.0  1.94221E+06  7.62484E+08
       321     1266.7  2.18307E+06  8.87325E+08
       322     1333.3  2.48642E+06  1.05254E+09
       323     1400.0  2.81803E+06  1.23942E+09
       324     1466.7  3.13722E+06  1.41952E+09
       325     1533.3  3.52372E+06  1.65407E+09
       326     1600.0  3.91833E+06  1.91618E+09
       327     1666.7  4.31058E+06  2.16485E+09
       328     1733.3  4.76602E+06  2.48421E+09
       329     1800.0  5.23800E+06  2.83672E+09
       330     1866.7  5.67388E+06  3.16554E+09
       331     1933.3  6.27111E+06  3.58608E+09
       332     2000.0  6.89596E+06  4.04966E+09
       333     2066.7  7.45799E+06  4.48256E+09
       334     2133.3  8.19401E+06  5.03316E+09
       335     2200.0  8.92960E+06  5.63587E+09
       336     2266.7  9.65613E+06  6.19712E+09
       337     2333.3  1.05378E+07  6.90789E+09
       338     2400.0  1.14469E+07  7.68217E+09
       339     2466.7  1.22975E+07  8.39948E+09
       340     2533.3  1.33892E+07  9.30318E+09
       341     2600.0  1.45463E+07  1.02858E+10
       342     2666.7  1.56046E+07  1.11946E+10
       343     2733.3  1.69209E+07  1.23385E+10
       344     2800.0  1.83225E+07  1.35794E+10
       345     2866.7  1.96086E+07  1.47249E+10
       346     2933.3  2.11848E+07  1.61611E+10
       347     3000.0  2.28528E+07  1.77095E+10
       348     3066.7  2.43441E+07  1.91307E+10
       349     3133.3  2.60894E+07  2.09039E+10
       350     3200.0  2.80193E+07  2.28088E+10
       351     3266.7  2.97787E+07  2.45548E+10
       352     3333.3  3.20347E+07  2.67307E+10
       353     3400.0  3.42835E+07  2.90584E+10
       354     3466.7  3.62749E+07  3.11828E+10
       355     3533.3  3.86930E+07  3.38167E+10
       356     3600.0  4.11892E+07  3.66248E+10
       357     3666.7  4.35184E+07  3.91789E+10
       358     3733.3  4.62706E+07  4.23354E+10
       359     3800.0  4.92728E+07  4.56944E+10
       360     3866.7  5.20086E+07  4.87447E+10
       361     3933.3  5.52376E+07  5.25127E+10
       362     4000.0  5.87480E+07  5.65205E+10
       363     4066.7  6.18078E+07  6.01509E+10
       364     4133.3  6.55155E+07  6.46257E+10
       365     4200.0  6.92689E+07  6.93643E+10
       366     4266.7  7.28149E+07  7.36438E+10
       367     4333.3  7.72159E+07  7.89153E+10
       368     4400.0  8.17522E+07  8.45017E+10
       369     4466.7  8.56314E+07  8.95405E+10
       370     4533.3  9.05454E+07  9.57296E+10
       371     4600.0  9.56605E+07  1.02271E+11
       372     4666.7  1.00111E+08  1.08168E+11
       373     4733.3  1.05172E+08  1.15379E+11
       374     4800.0  1.10846E+08  1.22971E+11
       375     4866.7  1.15773E+08  1.29797E+11
       376     4933.3  1.21732E+08  1.38137E+11
       377     5000.0  1.27958E+08  1.46901E+11
       378     5066.7  1.33549E+08  1.54772E+11
       379     5133.3  1.40295E+08  1.64392E+11
       380     5200.0  1.47620E+08  1.74507E+11
       381     5266.7  1.53986E+08  1.83589E+11
       382     5333.3  1.61720E+08  1.94675E+11
       383     5400.0  1.69736E+08  2.06310E+11
       384     5466.7  1.77012E+08  2.16751E+11
       385     5533.3  1.85274E+08  2.29479E+11
       386     5600.0  1.93690E+08  2.42781E+11
       387     5666.7  2.01383E+08  2.54669E+11
       388     5733.3  2.10989E+08  2.69145E+11
       389     5800.0  2.20860E+08  2.84301E+11
       390     5866.7  2.29104E+08  2.97837E+11
       391     5933.3  2.39420E+08  3.14285E+11
       392     6000.0  2.50032E+08  3.31479E+11
       393     6066.7  2.59757E+08  3.46818E+11
       394     6133.3  2.71088E+08  3.65442E+11
       395     6200.0  2.82901E+08  3.84888E+11
       396     6266.7  2.92883E+08  4.02207E+11
       397     6333.3  3.05502E+08  4.23211E+11
       398     6400.0  3.18442E+08  4.45111E+11
       399     6466.7  3.29945E+08  4.64616E+11
       400     6533.3  3.44176E+08  4.88273E+11
       401     6600.0  3.59219E+08  5.12963E+11
       402     6666.7  3.72685E+08  5.34988E+11
       403     6733.3  3.88954E+08  5.61724E+11
       404     6800.0  4.05929E+08  5.89627E+11
       405     6866.7  4.20936E+08  6.14507E+11
       406     6933.3  4.39292E+08  6.44707E+11
       407     7000.0  4.58175E+08  6.76212E+11
       408     7066.7  4.75060E+08  7.04292E+11
       409     7133.3  4.95405E+08  7.38353E+11
       410     7200.0  5.16424E+08  7.73868E+11
       411     7266.7  5.35133E+08  8.05507E+11
       412     7333.3  5.57683E+08  8.43865E+11
       413     7400.0  5.81132E+08  8.83836E+11
       414     7466.7  6.01864E+08  9.19424E+11
       415     7533.3  6.26794E+08  9.62547E+11
       416     7600.0  6.52762E+08  1.00746E+12
       417     7666.7  6.75709E+08  1.04742E+12
       418     7733.3  7.03393E+08  1.09582E+12
       419     7800.0  7.32085E+08  1.14620E+12
       420     7866.7  7.57368E+08  1.19100E+12
       421     7933.3  7.87870E+08  1.24524E+12
       422     8000.0  8.19570E+08  1.30165E+12
       423     8066.7  8.47601E+08  1.35180E+12
       424     8133.3  8.81363E+08  1.41248E+12
       425     8200.0  9.16190E+08  1.47556E+12
       426     8266.7  9.47031E+08  1.53161E+12
       427     8333.3  9.84275E+08  1.59938E+12
       428     8400.0  1.02269E+09  1.66981E+12
       429     8466.7  1.05664E+09  1.73236E+12
       430     8533.3  1.09759E+09  1.80795E+12
       431     8600.0  1.13983E+09  1.88646E+12
       432     8666.7  1.17722E+09  1.95616E+12
       433     8733.3  1.22221E+09  2.04035E+12
       434     8800.0  1.26870E+09  2.12775E+12
       435     8866.7  1.30962E+09  2.20530E+12
       436     8933.3  1.35888E+09  2.29893E+12
       437     9000.0  1.40994E+09  2.39609E+12
       438     9066.7  1.45505E+09  2.48226E+12
       439     9133.3  1.50898E+09  2.58625E+12
       440     9200.0  1.56483E+09  2.69411E+12
       441     9266.7  1.61412E+09  2.78972E+12
       442     9333.3  1.67337E+09  2.90507E+12
       443     9400.0  1.73462E+09  3.02464E+12
       444     9466.7  1.78848E+09  3.13060E+12
       445     9533.3  1.85333E+09  3.25837E+12
       446     9600.0  1.92002E+09  3.39076E+12
       447     9666.7  1.97915E+09  3.50803E+12
       448     9733.3  2.04999E+09  3.64939E+12
       449     9800.0  2.12292E+09  3.79579E+12
       450     9866.7  2.18722E+09  3.92541E+12
       451     9933.3  2.26453E+09  4.08160E+12
       452    10000.0  2.34429E+09  4.24329E+12
       453    10066.7  2.41446E+09  4.38640E+12
       454    10133.3  2.49878E+09  4.55877E+12
       455    10200.0  2.58563E+09  4.73714E+12
       456    10266.7  2.66217E+09  4.89495E+12
       457    10333.3  2.75386E+09  5.08495E+12
       458    10400.0  2.84850E+09  5.28149E+12
       459    10466.7  2.93184E+09  5.45530E+12
       460    10533.3  3.03145E+09  5.66450E+12
       461    10600.0  3.13433E+09  5.88081E+12
       462    10666.7  3.22510E+09  6.07204E+12
       463    10733.3  3.33366E+09  6.30211E+12
       464    10800.0  3.44549E+09  6.53992E+12
       465    10866.7  3.54364E+09  6.75007E+12
       466    10933.3  3.66165E+09  7.00283E+12
       467    11000.0  3.78293E+09  7.26398E+12
       468    11066.7  3.88978E+09  7.49468E+12
       469    11133.3  4.01779E+09  7.77206E+12
       470    11200.0  4.14919E+09  8.05855E+12
       471    11266.7  4.26503E+09  8.31154E+12
       472    11333.3  4.40376E+09  8.61563E+12
       473    11400.0  4.54645E+09  8.92957E+12
       474    11466.7  4.67179E+09  9.20673E+12
       475    11533.3  4.82195E+09  9.53975E+12
       476    11600.0  4.97640E+09  9.88344E+12
       477    11666.7  5.11244E+09  1.01868E+13
       478    11733.3  5.27479E+09  1.05511E+13
       479    11800.0  5.44190E+09  1.09270E+13
       480    11866.7  5.58869E+09  1.12586E+13
       481    11933.3  5.76424E+09  1.16568E+13
       482    12000.0  5.94488E+09  1.20675E+13
       483    12066.7  6.10368E+09  1.24297E+13
       484    12133.3  6.29341E+09  1.28646E+13
       485    12200.0  6.48826E+09  1.33129E+13
       486    12266.7  6.65951E+09  1.37081E+13
       487    12333.3  6.86449E+09  1.41825E+13
       488    12400.0  7.07491E+09  1.46714E+13
       489    12466.7  7.25951E+09  1.51023E+13
       490    12533.3  7.48070E+09  1.56193E+13
       491    12600.0  7.70735E+09  1.61520E+13
       492    12666.7  7.90677E+09  1.66214E+13
       493    12733.3  8.14495E+09  1.71844E+13
       494    12800.0  8.38932E+09  1.77642E+13
       495    12866.7  8.60388E+09  1.82751E+13
       496    12933.3  8.86004E+09  1.88876E+13
       497    13000.0  9.12330E+09  1.95183E+13
       498    13066.7  9.35443E+09  2.00737E+13
       499    13133.3  9.62994E+09  2.07395E+13
       500    13200.0  9.91311E+09  2.14249E+13
       501    13266.7  1.01614E+10  2.20283E+13
       502    13333.3  1.04581E+10  2.27515E+13
       503    13400.0  1.07625E+10  2.34956E+13
       504    13466.7  1.10292E+10  2.41507E+13
       505    13533.3  1.13479E+10  2.49354E+13
       506    13600.0  1.16743E+10  2.57428E+13
       507    13666.7  1.19614E+10  2.64533E+13
       508    13733.3  1.23035E+10  2.73042E+13
       509    13800.0  1.26539E+10  2.81794E+13
       510    13866.7  1.29615E+10  2.89494E+13
       511    13933.3  1.33287E+10  2.98714E+13
       512    14000.0  1.37050E+10  3.08194E+13
       513    14066.7  1.40349E+10  3.16532E+13
       514    14133.3  1.44285E+10  3.26513E+13
       515    14200.0  1.48318E+10  3.36774E+13
       516    14266.7  1.51852E+10  3.45796E+13
       517    14333.3  1.56069E+10  3.56594E+13
       518    14400.0  1.60390E+10  3.67691E+13
       519    14466.7  1.64175E+10  3.77446E+13
       520    14533.3  1.68686E+10  3.89118E+13
       521    14600.0  1.73312E+10  4.01111E+13
       522    14666.7  1.77365E+10  4.11651E+13
       523    14733.3  1.82193E+10  4.24259E+13
       524    14800.0  1.87141E+10  4.37210E+13
       525    14866.7  1.91473E+10  4.48589E+13
       526    14933.3  1.96639E+10  4.62199E+13
       527    15000.0  2.01926E+10  4.76174E+13
       528    15066.7  2.06561E+10  4.88451E+13
       529    15133.3  2.12083E+10  5.03131E+13
       530    15200.0  2.17727E+10  5.18202E+13
       531    15266.7  2.22676E+10  5.31438E+13
       532    15333.3  2.28576E+10  5.47261E+13
       533    15400.0  2.34608E+10  5.63501E+13
       534    15466.7  2.39886E+10  5.77762E+13
       535    15533.3  2.46181E+10  5.94805E+13
       536    15600.0  2.52619E+10  6.12295E+13
       537    15666.7  2.58254E+10  6.27648E+13
       538    15733.3  2.64967E+10  6.45994E+13
       539    15800.0  2.71836E+10  6.64815E+13
       540    15866.7  2.77842E+10  6.81335E+13
       541    15933.3  2.84997E+10  7.01069E+13
       542    16000.0  2.92315E+10  7.21311E+13
       543    16066.7  2.98723E+10  7.39073E+13
       544    16133.3  3.06344E+10  7.60288E+13
       545    16200.0  3.14137E+10  7.82043E+13
       546    16266.7  3.20960E+10  8.01129E+13
       547    16333.3  3.29079E+10  8.23920E+13
       548    16400.0  3.37378E+10  8.47286E+13
       549    16466.7  3.44634E+10  8.67782E+13
       550    16533.3  3.53280E+10  8.92252E+13
       551    16600.0  3.62107E+10  9.17333E+13
       552    16666.7  3.69830E+10  9.39329E+13
       553    16733.3  3.79028E+10  9.65584E+13
       554    16800.0  3.88415E+10  9.92490E+13
       555    16866.7  3.96625E+10  1.01608E+14
       556    16933.3  4.06397E+10  1.04424E+14
       557    17000.0  4.16382E+10  1.07308E+14
       558    17066.7  4.25109E+10  1.09837E+14
       559    17133.3  4.35488E+10  1.12854E+14
       560    17200.0  4.46098E+10  1.15945E+14
       561    17266.7  4.55367E+10  1.18654E+14
       562    17333.3  4.66391E+10  1.21885E+14
       563    17400.0  4.77656E+10  1.25195E+14
       564    17466.7  4.87492E+10  1.28095E+14
       565    17533.3  4.99200E+10  1.31554E+14
       566    17600.0  5.11146E+10  1.35096E+14
       567    17666.7  5.21588E+10  1.38200E+14
       568    17733.3  5.34007E+10  1.41900E+14
       569    17800.0  5.46678E+10  1.45689E+14
       570    17866.7  5.57746E+10  1.49008E+14
       571    17933.3  5.70917E+10  1.52964E+14
       572    18000.0  5.84364E+10  1.57014E+14
       573    18066.7  5.96087E+10  1.60562E+14
       574    18133.3  6.10052E+10  1.64790E+14
       575    18200.0  6.24298E+10  1.69117E+14
       576    18266.7  6.36724E+10  1.72906E+14
       577    18333.3  6.51505E+10  1.77422E+14
       578    18400.0  6.66596E+10  1.82043E+14
       579    18466.7  6.79763E+10  1.86089E+14
       580    18533.3  6.95416E+10  1.90909E+14
       581    18600.0  7.11392E+10  1.95841E+14
       582    18666.7  7.25323E+10  2.00158E+14
       583    18733.3  7.41897E+10  2.05301E+14
       584    18800.0  7.58792E+10  2.10562E+14
       585    18866.7  7.73540E+10  2.15166E+14
       586    18933.3  7.91061E+10  2.20651E+14
       587    19000.0  8.08942E+10  2.26260E+14
       588    19066.7  8.24534E+10  2.31168E+14
       589    19133.3  8.43073E+10  2.37014E+14
       590    19200.0  8.61963E+10  2.42990E+14
       591    19266.7  8.78454E+10  2.48220E+14
       592    19333.3  8.98045E+10  2.54447E+14
       593    19400.0  9.17998E+10  2.60813E+14
       594    19466.7  9.35422E+10  2.66382E+14
       595    19533.3  9.56111E+10  2.73012E+14
       596    19600.0  9.77208E+10  2.79789E+14
       597    19666.7  9.95607E+10  2.85717E+14
       598    19733.3  1.01746E+11  2.92773E+14
       599    19800.0  1.03973E+11  2.99984E+14
       600    19866.7  1.05915E+11  3.06290E+14
       601    19933.3  1.08221E+11  3.13796E+14
       602    20000.0  1.10571E+11  3.21465E+14
       603    20066.7  1.12620E+11  3.28171E+14
       604    20133.3  1.15054E+11  3.36152E+14
       605    20200.0  1.17533E+11  3.44304E+14
       606    20266.7  1.19695E+11  3.51432E+14
       607    20333.3  1.22262E+11  3.59913E+14
       608    20400.0  1.24874E+11  3.68576E+14
       609    20466.7  1.27155E+11  3.76148E+14
       610    20533.3  1.29861E+11  3.85157E+14
       611    20600.0  1.32615E+11  3.94357E+14
       612    20666.7  1.35018E+11  4.02398E+14
       613    20733.3  1.37870E+11  4.11963E+14
       614    20800.0  1.40772E+11  4.21729E+14
       615    20866.7  1.43304E+11  4.30264E+14
       616    20933.3  1.46308E+11  4.40415E+14
       617    21000.0  1.49365E+11  4.50779E+14
       618    21066.7  1.52030E+11  4.59834E+14
       619    21133.3  1.55193E+11  4.70602E+14
       620    21200.0  1.58414E+11  4.81594E+14
       621    21266.7  1.61219E+11  4.91197E+14
       622    21333.3  1.64546E+11  5.02615E+14
       623    21400.0  1.67936E+11  5.14268E+14
       624    21466.7  1.70888E+11  5.24447E+14
       625    21533.3  1.74389E+11  5.36549E+14
       626    21600.0  1.77953E+11  5.48899E+14
       627    21666.7  1.81061E+11  5.59684E+14
       628    21733.3  1.84743E+11  5.72505E+14
       629    21800.0  1.88491E+11  5.85587E+14
       630    21866.7  1.91757E+11  5.97010E+14
       631    21933.3  1.95630E+11  6.10588E+14
       632    22000.0  1.99569E+11  6.24439E+14
       633    22066.7  2.03002E+11  6.36533E+14
       634    22133.3  2.07072E+11  6.50906E+14
       635    22200.0  2.11212E+11  6.65566E+14
       636    22266.7  2.14819E+11  6.78365E+14
       637    22333.3  2.19096E+11  6.93573E+14
       638    22400.0  2.23445E+11  7.09083E+14
       639    22466.7  2.27233E+11  7.22622E+14
       640    22533.3  2.31724E+11  7.38707E+14
       641    22600.0  2.36292E+11  7.55110E+14
       642    22666.7  2.40270E+11  7.69427E+14
       643    22733.3  2.44983E+11  7.86434E+14
       644    22800.0  2.49778E+11  8.03774E+14
       645    22866.7  2.53954E+11  8.18906E+14
       646    22933.3  2.58901E+11  8.36881E+14
       647    23000.0  2.63932E+11  8.55204E+14
       648    23066.7  2.68314E+11  8.71193E+14
       649    23133.3  2.73504E+11  8.90182E+14
       650    23200.0  2.78782E+11  9.09538E+14
       651    23266.7  2.83377E+11  9.26426E+14
       652    23333.3  2.88822E+11  9.46479E+14
       653    23400.0  2.94356E+11  9.66918E+14
       654    23466.7  2.99174E+11  9.84747E+14
       655    23533.3  3.04881E+11  1.00592E+15
       656    23600.0  3.10684E+11  1.02749E+15
       657    23666.7  3.15734E+11  1.04631E+15
       658    23733.3  3.21716E+11  1.06865E+15
       659    23800.0  3.27797E+11  1.09141E+15
       660    23866.7  3.33089E+11  1.11126E+15
       661    23933.3  3.39357E+11  1.13483E+15
       662    24000.0  3.45726E+11  1.15884E+15
       663    24066.7  3.51270E+11  1.17978E+15
       664    24133.3  3.57835E+11  1.20463E+15
       665    24200.0  3.64507E+11  1.22994E+15
       666    24266.7  3.70312E+11  1.25202E+15
       667    24333.3  3.77185E+11  1.27821E+15
       668    24400.0  3.84171E+11  1.30489E+15
       669    24466.7  3.90247E+11  1.32816E+15
       670    24533.3  3.97443E+11  1.35576E+15
       671    24600.0  4.04753E+11  1.38387E+15
       672    24666.7  4.11113E+11  1.40838E+15
       673    24733.3  4.18646E+11  1.43746E+15
       674    24800.0  4.26291E+11  1.46707E+15
       675    24866.7  4.32943E+11  1.49288E+15
       676    24933.3  4.40822E+11  1.52350E+15
       677    25000.0  4.48828E+11  1.55468E+15
       678    25066.7  4.55783E+11  1.58185E+15
       679    25133.3  4.64023E+11  1.61408E+15
       680    25200.0  4.72389E+11  1.64690E+15
       681    25266.7  4.79663E+11  1.67549E+15
       682    25333.3  4.88276E+11  1.70941E+15
       683    25400.0  4.97015E+11  1.74394E+15
       684    25466.7  5.04628E+11  1.77403E+15
       685    25533.3  5.13624E+11  1.80971E+15
       686    25600.0  5.22770E+11  1.84603E+15
       687    25666.7  5.30710E+11  1.87768E+15
       688    25733.3  5.40122E+11  1.91520E+15
       689    25800.0  5.49675E+11  1.95339E+15
       690    25866.7  5.57970E+11  1.98666E+15
       691    25933.3  5.67805E+11  2.02611E+15
       692    26000.0  5.77771E+11  2.06625E+15
       693    26066.7  5.86441E+11  2.10122E+15
       694    26133.3  5.96703E+11  2.14268E+15
       695    26200.0  6.07121E+11  2.18487E+15
       696    26266.7  6.16177E+11  2.22161E+15
       697    26333.3  6.26877E+11  2.26517E+15
       698    26400.0  6.37749E+11  2.30949E+15
       699    26466.7  6.47211E+11  2.34808E+15
       700    26533.3  6.58386E+11  2.39383E+15
       701    26600.0  6.69732E+11  2.44037E+15
       702    26666.7  6.79597E+11  2.48090E+15
       703    26733.3  6.91261E+11  2.52894E+15
       704    26800.0  7.03092E+11  2.57780E+15
       705    26866.7  7.13371E+11  2.62034E+15
       706    26933.3  7.25548E+11  2.67077E+15
       707    27000.0  7.37902E+11  2.72205E+15
       708    27066.7  7.48627E+11  2.76670E+15
       709    27133.3  7.61313E+11  2.81961E+15
       710    27200.0  7.74187E+11  2.87341E+15
       711    27266.7  7.85375E+11  2.92025E+15
       712    27333.3  7.98611E+11  2.97576E+15
       713    27400.0  8.12025E+11  3.03220E+15
       714    27466.7  8.23687E+11  3.08132E+15
       715    27533.3  8.37479E+11  3.13953E+15
       716    27600.0  8.51460E+11  3.19871E+15
       717    27666.7  8.63618E+11  3.25023E+15
       718    27733.3  8.77981E+11  3.31125E+15
       719    27800.0  8.92551E+11  3.37329E+15
       720    27866.7  9.05221E+11  3.42729E+15
       721    27933.3  9.20201E+11  3.49125E+15
       722    28000.0  9.35373E+11  3.55627E+15
       723    28066.7  9.48573E+11  3.61286E+15
       724    28133.3  9.64142E+11  3.67988E+15
       725    28200.0  9.79970E+11  3.74800E+15
       726    28266.7  9.93691E+11  3.80728E+15
       727    28333.3  1.00993E+12  3.87748E+15
       728    28400.0  1.02640E+12  3.94884E+15
       729    28466.7  1.04069E+12  4.01092E+15
       730    28533.3  1.05759E+12  4.08444E+15
       731    28600.0  1.07473E+12  4.15916E+15
       732    28666.7  1.08961E+12  4.22416E+15
       733    28733.3  1.10720E+12  4.30114E+15
       734    28800.0  1.12503E+12  4.37935E+15
       735    28866.7  1.14053E+12  4.44740E+15
       736    28933.3  1.15881E+12  4.52796E+15
       737    29000.0  1.17737E+12  4.60982E+15
       738    29066.7  1.19348E+12  4.68103E+15
       739    29133.3  1.21251E+12  4.76533E+15
       740    29200.0  1.23182E+12  4.85098E+15
       741    29266.7  1.24857E+12  4.92547E+15
       742    29333.3  1.26838E+12  5.01366E+15
       743    29400.0  1.28844E+12  5.10325E+15
       744    29466.7  1.30587E+12  5.18117E+15
       745    29533.3  1.32645E+12  5.27340E+15
       746    29600.0  1.34733E+12  5.36708E+15
       747    29666.7  1.36543E+12  5.44855E+15
       748    29733.3  1.38684E+12  5.54499E+15
       749    29800.0  1.40852E+12  5.64293E+15
       750    29866.7  1.42735E+12  5.72810E+15
       751    29933.3  1.44958E+12  5.82890E+15
       752    30000.0  1.47214E+12  5.93128E+15
       753    30066.7  1.49170E+12  6.02029E+15
       754    30133.3  1.51481E+12  6.12563E+15
       755    30200.0  1.53821E+12  6.23260E+15
       756    30266.7  1.55854E+12  6.32560E+15
       757    30333.3  1.58255E+12  6.43566E+15
       758    30400.0  1.60689E+12  6.54741E+15
       759    30466.7  1.62799E+12  6.64456E+15
       760    30533.3  1.65291E+12  6.75951E+15
       761    30600.0  1.67820E+12  6.87623E+15
       762    30666.7  1.70009E+12  6.97768E+15
       763    30733.3  1.72601E+12  7.09773E+15
       764    30800.0  1.75224E+12  7.21959E+15
       765    30866.7  1.77500E+12  7.32552E+15
       766    30933.3  1.80187E+12  7.45084E+15
       767    31000.0  1.82910E+12  7.57806E+15
       768    31066.7  1.85273E+12  7.68863E+15
       769    31133.3  1.88061E+12  7.81944E+15
       770    31200.0  1.90888E+12  7.95221E+15
       771    31266.7  1.93339E+12  8.06760E+15
       772    31333.3  1.96233E+12  8.20409E+15
       773    31400.0  1.99167E+12  8.34263E+15
       774    31466.7  2.01711E+12  8.46302E+15
       775    31533.3  2.04714E+12  8.60541E+15
       776    31600.0  2.07757E+12  8.74993E+15
       777    31666.7  2.10395E+12  8.87551E+15
       778    31733.3  2.13511E+12  9.02403E+15
       779    31800.0  2.16666E+12  9.17474E+15
       780    31866.7  2.19403E+12  9.30570E+15
       781    31933.3  2.22635E+12  9.46057E+15
       782    32000.0  2.25907E+12  9.61772E+15
       783    32066.7  2.28745E+12  9.75426E+15
       784    32133.3  2.32095E+12  9.91572E+15
       785    32200.0  2.35486E+12  1.00795E+16
       786    32266.7  2.38429E+12  1.02219E+16
       787    32333.3  2.41903E+12  1.03901E+16
       788    32400.0  2.45420E+12  1.05609E+16
       789    32466.7  2.48468E+12  1.07092E+16
       790    32533.3  2.52068E+12  1.08846E+16
       791    32600.0  2.55713E+12  1.10625E+16
       792    32666.7  2.58873E+12  1.12170E+16
       793    32733.3  2.62603E+12  1.13997E+16
       794    32800.0  2.66379E+12  1.15850E+16
       795    32866.7  2.69654E+12  1.17460E+16
       796    32933.3  2.73517E+12  1.19363E+16
       797    33000.0  2.77431E+12  1.21293E+16
       798    33066.7  2.80823E+12  1.22970E+16
       799    33133.3  2.84825E+12  1.24951E+16
       800    33200.0  2.88877E+12  1.26961E+16
       801    33266.7  2.92391E+12  1.28707E+16
       802    33333.3  2.96537E+12  1.30770E+16
       803    33400.0  3.00733E+12  1.32863E+16
       804    33466.7  3.04373E+12  1.34680E+16
       805    33533.3  3.08664E+12  1.36828E+16
       806    33600.0  3.13009E+12  1.39006E+16
       807    33666.7  3.16777E+12  1.40897E+16
       808    33733.3  3.21220E+12  1.43132E+16
       809    33800.0  3.25719E+12  1.45399E+16
       810    33866.7  3.29618E+12  1.47367E+16
       811    33933.3  3.34217E+12  1.49692E+16
       812    34000.0  3.38872E+12  1.52050E+16
       813    34066.7  3.42909E+12  1.54098E+16
       814    34133.3  3.47669E+12  1.56517E+16
       815    34200.0  3.52485E+12  1.58970E+16
       816    34266.7  3.56665E+12  1.61099E+16
       817    34333.3  3.61586E+12  1.63616E+16
       818    34400.0  3.66570E+12  1.66167E+16
       819    34466.7  3.70889E+12  1.68381E+16
       820    34533.3  3.75984E+12  1.70998E+16
       821    34600.0  3.81145E+12  1.73650E+16
       822    34666.7  3.85605E+12  1.75953E+16
       823    34733.3  3.90883E+12  1.78673E+16
       824    34800.0  3.96220E+12  1.81431E+16
       825    34866.7  4.00840E+12  1.83824E+16
       826    34933.3  4.06287E+12  1.86652E+16
       827    35000.0  4.11803E+12  1.89518E+16
       828    35066.7  4.16584E+12  1.92005E+16
       829    35133.3  4.22217E+12  1.94944E+16
       830    35200.0  4.27925E+12  1.97922E+16
       831    35266.7  4.32855E+12  2.00507E+16
       832    35333.3  4.38687E+12  2.03560E+16
       833    35400.0  4.44576E+12  2.06655E+16
       834    35466.7  4.49683E+12  2.09340E+16
       835    35533.3  4.55710E+12  2.12512E+16
       836    35600.0  4.61796E+12  2.15726E+16
       837    35666.7  4.67081E+12  2.18515E+16
       838    35733.3  4.73299E+12  2.21810E+16
       839    35800.0  4.79599E+12  2.25148E+16
       840    35866.7  4.85056E+12  2.28045E+16
       841    35933.3  4.91480E+12  2.31466E+16
       842    36000.0  4.97990E+12  2.34932E+16
       843    36066.7  5.03622E+12  2.37940E+16
       844    36133.3  5.10276E+12  2.41492E+16
       845    36200.0  5.16985E+12  2.45090E+16
       846    36266.7  5.22804E+12  2.48213E+16
       847    36333.3  5.29661E+12  2.51900E+16
       848    36400.0  5.36609E+12  2.55635E+16
       849    36466.7  5.42618E+12  2.58876E+16
       850    36533.3  5.49712E+12  2.62702E+16
       851    36600.0  5.56863E+12  2.66579E+16
       852    36666.7  5.63072E+12  2.69942E+16
       853    36733.3  5.70411E+12  2.73913E+16
       854    36800.0  5.77803E+12  2.77935E+16
       855    36866.7  5.84203E+12  2.81424E+16
       856    36933.3  5.91762E+12  2.85544E+16
       857    37000.0  5.99406E+12  2.89717E+16
       858    37066.7  6.06023E+12  2.93336E+16
       859    37133.3  6.13817E+12  2.97610E+16
       860    37200.0  6.21714E+12  3.01938E+16
       861    37266.7  6.28540E+12  3.05692E+16
       862    37333.3  6.36593E+12  3.10124E+16
       863    37400.0  6.44738E+12  3.14613E+16
       864    37466.7  6.51766E+12  3.18506E+16
       865    37533.3  6.60086E+12  3.23101E+16
       866    37600.0  6.68476E+12  3.27755E+16
       867    37666.7  6.75752E+12  3.31792E+16
       868    37733.3  6.84321E+12  3.36556E+16
       869    37800.0  6.92992E+12  3.41381E+16
       870    37866.7  7.00501E+12  3.45565E+16
       871    37933.3  7.09337E+12  3.50504E+16
       872    38000.0  7.18279E+12  3.55505E+16
       873    38066.7  7.26021E+12  3.59842E+16
       874    38133.3  7.35133E+12  3.64960E+16
       875    38200.0  7.44357E+12  3.70143E+16
       876    38266.7  7.52343E+12  3.74637E+16
       877    38333.3  7.61757E+12  3.79941E+16
       878    38400.0  7.71254E+12  3.85312E+16
       879    38466.7  7.79493E+12  3.89968E+16
       880    38533.3  7.89190E+12  3.95463E+16
       881    38600.0  7.99004E+12  4.01027E+16
       882    38666.7  8.07490E+12  4.05850E+16
       883    38733.3  8.17482E+12  4.11543E+16
       884    38800.0  8.27592E+12  4.17305E+16
       885    38866.7  8.36354E+12  4.22302E+16
       886    38933.3  8.46657E+12  4.28197E+16
       887    39000.0  8.57076E+12  4.34165E+16
       888    39066.7  8.66092E+12  4.39339E+16
       889    39133.3  8.76729E+12  4.45444E+16
       890    39200.0  8.87468E+12  4.51624E+16
       891    39266.7  8.96757E+12  4.56982E+16
       892    39333.3  9.07704E+12  4.63303E+16
       893    39400.0  9.18782E+12  4.69701E+16
       894    39466.7  9.28362E+12  4.75247E+16
       895    39533.3  9.39652E+12  4.81791E+16
       896    39600.0  9.51047E+12  4.88414E+16
       897    39666.7  9.60910E+12  4.94155E+16
       898    39733.3  9.72543E+12  5.00927E+16
       899    39800.0  9.84293E+12  5.07782E+16
       900    39866.7  9.94463E+12  5.13724E+16
       901    39933.3  1.00643E+13  5.20733E+16
       902    40000.0  7.74474E+12  5.27582E+16
