**************INPUT DATA SUMMARY**************
%%%%%%%%%%%%%%%%%%%%%%%%%%%%%%%%%%%%%%%%%%%%%%%%%%%%%%%%%%%%%%%%%%%%%%%%%%%%%%

                                        John R. Barker
                DenSum-2014.1           University of Michigan
                                        Ann Arbor, MI 48109-2143
                Jun 2014                jrbarker@umich.edu
                                        (734) 763 6239

              http://aoss.engin.umich.edu/multiwell/

%%%%%%%%%%%%%%%%%%%%%%%%%%%%%%%%%%%%%%%%%%%%%%%%%%%%%%%%%%%%%%%%%%%%%%%%%%%%%%

        Suggested Literature Citation:

        a) MultiWell-2014.1 Software, Jun 2014, designed and
           maintained by J.R. Barker with contributors N.F. Ortiz,
           J.M. Preses, L.L. Lohr, A. Maranzana, P.J. Stimac, T. L.
           Nguyen, and T. J. Dhilip Kumar, University of Michigan,
           Ann Arbor, MI; http://aoss.engin.umich.edu/multiwell/

        b) J.R. Barker, Int. J. Chem. Kinetics, 33, 232-45 (2001)



%%%%%%%%%%%%%%%%%%%%%%%%%%%%%%%%%%%%%%%%%%%%%%%%%%%%%%%%%%%%%%%%%%%%%%%%%%%%%%


....................................................
          2014/11/11   09:20:13.360   (Local Time)
          year/mm/dd   hr:mi:second
                 CPU :        0.003 s (  0.000 hr)
....................................................


Degrees of Freedom

    1  Vibrator  Freq(0-1)= 3330.00  Freq(har)= 3330.00  Anh(cm-1)=    0.00  g = 2
    2  Vibrator  Freq(0-1)= 3246.00  Freq(har)= 3246.00  Anh(cm-1)=    0.00  g = 1
    3  Vibrator  Freq(0-1)= 1627.00  Freq(har)= 1627.00  Anh(cm-1)=    0.00  g = 2
    4  Vibrator  Freq(0-1)= 1600.00  Freq(har)= 1600.00  Anh(cm-1)=    0.00  g = 1
    5  Vibrator  Freq(0-1)= 1429.00  Freq(har)= 1429.00  Anh(cm-1)=    0.00  g = 1
    6  Vibrator  Freq(0-1)= 1414.00  Freq(har)= 1414.00  Anh(cm-1)=    0.00  g = 2
    7  Vibrator  Freq(0-1)= 1094.00  Freq(har)= 1094.00  Anh(cm-1)=    0.00  g = 2
    8  Vibrator  Freq(0-1)=  907.00  Freq(har)=  907.00  Anh(cm-1)=    0.00  g = 1
    9  Vibrator  Freq(0-1)=  645.00  Freq(har)=  645.00  Anh(cm-1)=    0.00  g = 1
   10  Vibrator  Freq(0-1)=  584.00  Freq(har)=  584.00  Anh(cm-1)=    0.00  g = 2
   11  Vibrator  Freq(0-1)=  391.00  Freq(har)=  391.00  Anh(cm-1)=    0.00  g = 2
   12  Hind.Rot  Freq(har)=  249.00  Mom=   2.782  fold= 3  symm= 3  B=  6.0589 cm-1  Uo= 1137.0 cm-1
   13  Quan.Rot  AmuAng^2 =   89.59  Symm =  1.   dim = 1  B =  0.1882 cm-1
**************INPUT DATA SUMMARY**************
 C2H3F3____
C2H3F3 molecule                                   
       10.0        500   100000.0       1000      249.0
       No.    E(cm-1)    Density    Sum   [Energy at TOP of energy grains]
         1        0.0  1.10000E+00  1.10000E+01
         2       10.0  6.00000E-01  1.70000E+01
         3       20.0  6.00000E-01  2.30000E+01
         4       30.0  4.00000E-01  2.70000E+01
         5       40.0  4.00000E-01  3.10000E+01
         6       50.0  4.00000E-01  3.50000E+01
         7       60.0  2.00000E-01  3.70000E+01
         8       70.0  2.00000E-01  3.90000E+01
         9       80.0  4.00000E-01  4.30000E+01
        10       90.0  2.00000E-01  4.50000E+01
        11      100.0  2.00000E-01  4.70000E+01
        12      110.0  2.00000E-01  4.90000E+01
        13      120.0  2.00000E-01  5.10000E+01
        14      130.0  2.00000E-01  5.30000E+01
        15      140.0  2.00000E-01  5.50000E+01
        16      150.0  2.00000E-01  5.70000E+01
        17      160.0  2.00000E-01  5.90000E+01
        18      170.0  2.00000E-01  6.10000E+01
        19      180.0  2.00000E-01  6.30000E+01
        20      190.0  2.00000E-01  6.50000E+01
        21      200.0  2.00000E-01  6.70000E+01
        22      210.0  0.00000E+00  6.70000E+01
        23      220.0  2.00000E-01  6.90000E+01
        24      230.0  1.30000E+00  8.20000E+01
        25      240.0  8.00000E-01  9.00000E+01
        26      250.0  6.00000E-01  9.60000E+01
        27      260.0  6.00000E-01  1.02000E+02
        28      270.0  6.00000E-01  1.08000E+02
        29      280.0  4.00000E-01  1.12000E+02
        30      290.0  4.00000E-01  1.16000E+02
        31      300.0  4.00000E-01  1.20000E+02
        32      310.0  4.00000E-01  1.24000E+02
        33      320.0  4.00000E-01  1.28000E+02
        34      330.0  4.00000E-01  1.32000E+02
        35      340.0  2.00000E-01  1.34000E+02
        36      350.0  4.00000E-01  1.38000E+02
        37      360.0  4.00000E-01  1.42000E+02
        38      370.0  2.00000E-01  1.44000E+02
        39      380.0  4.00000E-01  1.48000E+02
        40      390.0  2.40000E+00  1.72000E+02
        41      400.0  1.60000E+00  1.88000E+02
        42      410.0  1.40000E+00  2.02000E+02
        43      420.0  1.20000E+00  2.14000E+02
        44      430.0  1.20000E+00  2.26000E+02
        45      440.0  8.00000E-01  2.34000E+02
        46      450.0  1.90000E+00  2.53000E+02
        47      460.0  1.20000E+00  2.65000E+02
        48      470.0  1.80000E+00  2.83000E+02
        49      480.0  8.00000E-01  2.91000E+02
        50      490.0  1.20000E+00  3.03000E+02
        51      500.0  1.00000E+00  3.13000E+02
        52      510.0  8.00000E-01  3.21000E+02
        53      520.0  8.00000E-01  3.29000E+02
        54      530.0  1.20000E+00  3.41000E+02
        55      540.0  6.00000E-01  3.47000E+02
        56      550.0  1.00000E+00  3.57000E+02
        57      560.0  8.00000E-01  3.65000E+02
        58      570.0  8.00000E-01  3.73000E+02
        59      580.0  3.00000E+00  4.03000E+02
        60      590.0  2.20000E+00  4.25000E+02
        61      600.0  1.40000E+00  4.39000E+02
        62      610.0  1.80000E+00  4.57000E+02
        63      620.0  3.60000E+00  4.93000E+02
        64      630.0  3.00000E+00  5.23000E+02
        65      640.0  1.80000E+00  5.41000E+02
        66      650.0  4.20000E+00  5.83000E+02
        67      660.0  3.60000E+00  6.19000E+02
        68      670.0  2.60000E+00  6.45000E+02
        69      680.0  2.60000E+00  6.71000E+02
        70      690.0  2.20000E+00  6.93000E+02
        71      700.0  2.40000E+00  7.17000E+02
        72      710.0  1.80000E+00  7.35000E+02
        73      720.0  2.20000E+00  7.57000E+02
        74      730.0  1.60000E+00  7.73000E+02
        75      740.0  2.00000E+00  7.93000E+02
        76      750.0  2.00000E+00  8.13000E+02
        77      760.0  1.40000E+00  8.27000E+02
        78      770.0  2.00000E+00  8.47000E+02
        79      780.0  4.90000E+00  8.96000E+02
        80      790.0  3.00000E+00  9.26000E+02
        81      800.0  3.60000E+00  9.62000E+02
        82      810.0  5.20000E+00  1.01400E+03
        83      820.0  4.40000E+00  1.05800E+03
        84      830.0  4.10000E+00  1.09900E+03
        85      840.0  6.20000E+00  1.16100E+03
        86      850.0  4.60000E+00  1.20700E+03
        87      860.0  4.60000E+00  1.25300E+03
        88      870.0  3.40000E+00  1.28700E+03
        89      880.0  5.10000E+00  1.33800E+03
        90      890.0  4.00000E+00  1.37800E+03
        91      900.0  3.40000E+00  1.41200E+03
        92      910.0  4.70000E+00  1.45900E+03
        93      920.0  4.60000E+00  1.50500E+03
        94      930.0  3.20000E+00  1.53700E+03
        95      940.0  4.00000E+00  1.57700E+03
        96      950.0  3.40000E+00  1.61100E+03
        97      960.0  3.40000E+00  1.64500E+03
        98      970.0  7.93333E+00  1.72433E+03
        99      980.0  7.00000E+00  1.79433E+03
       100      990.0  4.40000E+00  1.83833E+03
       101     1000.0  6.43333E+00  1.90267E+03
       102     1010.0  8.16667E+00  1.98433E+03
       103     1020.0  6.46667E+00  2.04900E+03
       104     1030.0  7.66667E+00  2.12567E+03
       105     1040.0  1.02667E+01  2.22833E+03
       106     1050.0  1.02000E+01  2.33033E+03
       107     1060.0  7.16667E+00  2.40200E+03
       108     1070.0  8.00000E+00  2.48200E+03
       109     1080.0  6.66667E+00  2.54867E+03
       110     1090.0  8.33333E+00  2.63200E+03
       111     1100.0  7.83333E+00  2.71033E+03
       112     1110.0  8.33333E+00  2.79367E+03
       113     1120.0  6.06667E+00  2.85433E+03
       114     1130.0  7.80000E+00  2.93233E+03
       115     1140.0  8.43333E+00  3.01667E+03
       116     1150.0  6.46667E+00  3.08133E+03
       117     1160.0  7.83333E+00  3.15967E+03
       118     1170.0  1.41333E+01  3.30100E+03
       119     1180.0  9.40000E+00  3.39500E+03
       120     1190.0  1.02000E+01  3.49700E+03
       121     1200.0  1.32000E+01  3.62900E+03
       122     1210.0  1.20667E+01  3.74967E+03
       123     1220.0  1.06667E+01  3.85633E+03
       124     1230.0  1.85000E+01  4.04133E+03
       125     1240.0  1.47333E+01  4.18867E+03
       126     1250.0  1.30000E+01  4.31867E+03
       127     1260.0  1.22000E+01  4.44067E+03
       128     1270.0  1.36000E+01  4.57667E+03
       129     1280.0  1.20667E+01  4.69733E+03
       130     1290.0  1.09667E+01  4.80700E+03
       131     1300.0  1.44333E+01  4.95133E+03
       132     1310.0  1.30667E+01  5.08200E+03
       133     1320.0  1.32667E+01  5.21467E+03
       134     1330.0  1.35333E+01  5.35000E+03
       135     1340.0  1.07333E+01  5.45733E+03
       136     1350.0  1.15333E+01  5.57267E+03
       137     1360.0  1.91667E+01  5.76433E+03
       138     1370.0  1.75333E+01  5.93967E+03
       139     1380.0  1.28667E+01  6.06833E+03
       140     1390.0  1.70333E+01  6.23867E+03
       141     1400.0  2.16667E+01  6.45533E+03
       142     1410.0  2.02000E+01  6.65733E+03
       143     1420.0  2.27333E+01  6.88467E+03
       144     1430.0  2.53000E+01  7.13767E+03
       145     1440.0  2.36667E+01  7.37433E+03
       146     1450.0  1.96000E+01  7.57033E+03
       147     1460.0  2.28000E+01  7.79833E+03
       148     1470.0  1.84667E+01  7.98300E+03
       149     1480.0  2.19667E+01  8.20267E+03
       150     1490.0  2.46667E+01  8.44933E+03
       151     1500.0  2.26667E+01  8.67600E+03
       152     1510.0  1.84000E+01  8.86000E+03
       153     1520.0  2.29667E+01  9.08967E+03
       154     1530.0  2.28000E+01  9.31767E+03
       155     1540.0  2.10000E+01  9.52767E+03
       156     1550.0  2.28000E+01  9.75567E+03
       157     1560.0  3.59667E+01  1.01153E+04
       158     1570.0  2.43333E+01  1.03587E+04
       159     1580.0  2.70667E+01  1.06293E+04
       160     1590.0  3.08000E+01  1.09373E+04
       161     1600.0  2.88333E+01  1.12257E+04
       162     1610.0  2.64667E+01  1.14903E+04
       163     1620.0  4.16667E+01  1.19070E+04
       164     1630.0  3.80000E+01  1.22870E+04
       165     1640.0  3.46667E+01  1.26337E+04
       166     1650.0  3.39667E+01  1.29733E+04
       167     1660.0  3.42000E+01  1.33153E+04
       168     1670.0  3.52000E+01  1.36673E+04
       169     1680.0  3.48000E+01  1.40153E+04
       170     1690.0  3.65000E+01  1.43803E+04
       171     1700.0  3.46000E+01  1.47263E+04
       172     1710.0  3.62333E+01  1.50887E+04
       173     1720.0  3.89333E+01  1.54780E+04
       174     1730.0  3.02000E+01  1.57800E+04
       175     1740.0  3.72667E+01  1.61527E+04
       176     1750.0  5.07333E+01  1.66600E+04
       177     1760.0  4.51333E+01  1.71113E+04
       178     1770.0  3.53333E+01  1.74647E+04
       179     1780.0  4.31667E+01  1.78963E+04
       180     1790.0  5.10000E+01  1.84063E+04
       181     1800.0  4.66000E+01  1.88723E+04
       182     1810.0  5.45667E+01  1.94180E+04
       183     1820.0  6.06667E+01  2.00247E+04
       184     1830.0  5.54333E+01  2.05790E+04
       185     1840.0  5.01667E+01  2.10807E+04
       186     1850.0  5.26000E+01  2.16067E+04
       187     1860.0  5.07333E+01  2.21140E+04
       188     1870.0  5.42667E+01  2.26567E+04
       189     1880.0  6.12000E+01  2.32687E+04
       190     1890.0  5.63333E+01  2.38320E+04
       191     1900.0  5.32667E+01  2.43647E+04
       192     1910.0  5.88333E+01  2.49530E+04
       193     1920.0  5.66333E+01  2.55193E+04
       194     1930.0  5.35333E+01  2.60547E+04
       195     1940.0  6.07667E+01  2.66623E+04
       196     1950.0  7.49333E+01  2.74117E+04
       197     1960.0  5.88000E+01  2.79997E+04
       198     1970.0  6.44333E+01  2.86440E+04
       199     1980.0  7.35333E+01  2.93793E+04
       200     1990.0  6.94333E+01  3.00737E+04
       201     2000.0  7.02000E+01  3.07757E+04
       202     2010.0  9.21333E+01  3.16970E+04
       203     2020.0  8.44667E+01  3.25417E+04
       204     2030.0  7.84667E+01  3.33263E+04
       205     2040.0  8.24667E+01  3.41510E+04
       206     2050.0  7.96333E+01  3.49473E+04
       207     2060.0  8.78667E+01  3.58260E+04
       208     2070.0  8.81333E+01  3.67073E+04
       209     2080.0  8.89667E+01  3.75970E+04
       210     2090.0  8.66667E+01  3.84637E+04
       211     2100.0  8.80667E+01  3.93443E+04
       212     2110.0  9.09333E+01  4.02537E+04
       213     2120.0  7.95000E+01  4.10487E+04
       214     2130.0  8.92667E+01  4.19413E+04
       215     2140.0  1.15767E+02  4.30990E+04
       216     2150.0  1.01067E+02  4.41097E+04
       217     2160.0  8.65667E+01  4.49753E+04
       218     2170.0  9.96000E+01  4.59713E+04
       219     2180.0  1.07100E+02  4.70423E+04
       220     2190.0  1.04000E+02  4.80823E+04
       221     2200.0  1.20833E+02  4.92907E+04
       222     2210.0  1.33400E+02  5.06247E+04
       223     2220.0  1.25833E+02  5.18830E+04
       224     2230.0  1.20533E+02  5.30883E+04
       225     2240.0  1.22600E+02  5.43143E+04
       226     2250.0  1.20867E+02  5.55230E+04
       227     2260.0  1.31267E+02  5.68357E+04
       228     2270.0  1.36600E+02  5.82017E+04
       229     2280.0  1.33067E+02  5.95323E+04
       230     2290.0  1.28500E+02  6.08173E+04
       231     2300.0  1.37333E+02  6.21907E+04
       232     2310.0  1.29633E+02  6.34870E+04
       233     2320.0  1.38867E+02  6.48757E+04
       234     2330.0  1.47133E+02  6.63470E+04
       235     2340.0  1.60900E+02  6.79560E+04
       236     2350.0  1.36633E+02  6.93223E+04
       237     2360.0  1.44467E+02  7.07670E+04
       238     2370.0  1.59267E+02  7.23597E+04
       239     2380.0  1.50233E+02  7.38620E+04
       240     2390.0  1.61000E+02  7.54720E+04
       241     2400.0  1.90800E+02  7.73800E+04
       242     2410.0  1.84967E+02  7.92297E+04
       243     2420.0  1.72333E+02  8.09530E+04
       244     2430.0  1.81067E+02  8.27637E+04
       245     2440.0  1.80733E+02  8.45710E+04
       246     2450.0  1.89833E+02  8.64693E+04
       247     2460.0  2.02300E+02  8.84923E+04
       248     2470.0  1.97500E+02  9.04673E+04
       249     2480.0  1.91500E+02  9.23823E+04
       250     2490.0  2.00333E+02  9.43857E+04
       251     2500.0  2.01067E+02  9.63963E+04
       252     2510.0  1.88033E+02  9.82767E+04
       253     2520.0  2.03233E+02  1.00309E+05
       254     2530.0  2.32900E+02  1.02638E+05
       255     2540.0  2.20867E+02  1.04847E+05
       256     2550.0  2.02467E+02  1.06871E+05
       257     2560.0  2.15200E+02  1.09023E+05
       258     2570.0  2.27533E+02  1.11299E+05
       259     2580.0  2.35567E+02  1.13654E+05
       260     2590.0  2.58033E+02  1.16235E+05
       261     2600.0  2.66567E+02  1.18900E+05
       262     2610.0  2.64433E+02  1.21545E+05
       263     2620.0  2.59467E+02  1.24139E+05
       264     2630.0  2.61633E+02  1.26756E+05
       265     2640.0  2.67600E+02  1.29432E+05
       266     2650.0  2.88500E+02  1.32317E+05
       267     2660.0  2.98100E+02  1.35298E+05
       268     2670.0  2.85333E+02  1.38151E+05
       269     2680.0  2.77567E+02  1.40927E+05
       270     2690.0  2.96000E+02  1.43887E+05
       271     2700.0  2.77000E+02  1.46657E+05
       272     2710.0  2.99800E+02  1.49655E+05
       273     2720.0  3.18033E+02  1.52835E+05
       274     2730.0  3.37500E+02  1.56210E+05
       275     2740.0  3.00633E+02  1.59216E+05
       276     2750.0  3.06633E+02  1.62283E+05
       277     2760.0  3.24900E+02  1.65532E+05
       278     2770.0  3.26000E+02  1.68792E+05
       279     2780.0  3.36933E+02  1.72161E+05
       280     2790.0  3.81933E+02  1.75980E+05
       281     2800.0  3.82267E+02  1.79803E+05
       282     2810.0  3.71700E+02  1.83520E+05
       283     2820.0  3.76333E+02  1.87283E+05
       284     2830.0  3.81633E+02  1.91100E+05
       285     2840.0  4.08533E+02  1.95185E+05
       286     2850.0  4.24667E+02  1.99432E+05
       287     2860.0  4.10600E+02  2.03538E+05
       288     2870.0  4.07067E+02  2.07608E+05
       289     2880.0  4.19133E+02  2.11800E+05
       290     2890.0  4.20433E+02  2.16004E+05
       291     2900.0  4.07733E+02  2.20081E+05
       292     2910.0  4.38800E+02  2.24469E+05
       293     2920.0  4.70700E+02  2.29176E+05
       294     2930.0  4.58067E+02  2.33757E+05
       295     2940.0  4.28733E+02  2.38044E+05
       296     2950.0  4.49433E+02  2.42539E+05
       297     2960.0  4.65467E+02  2.47193E+05
       298     2970.0  4.94500E+02  2.52138E+05
       299     2980.0  5.10767E+02  2.57246E+05
       300     2990.0  5.37100E+02  2.62617E+05
       301     3000.0  5.33333E+02  2.67950E+05
       302     3010.0  5.31500E+02  2.73265E+05
       303     3020.0  5.23733E+02  2.78503E+05
       304     3030.0  5.53833E+02  2.84041E+05
       305     3040.0  5.89767E+02  2.89939E+05
       306     3050.0  5.97567E+02  2.95914E+05
       307     3060.0  5.79233E+02  3.01707E+05
       308     3070.0  5.79133E+02  3.07498E+05
       309     3080.0  5.98233E+02  3.13480E+05
       310     3090.0  5.78700E+02  3.19267E+05
       311     3100.0  6.09233E+02  3.25360E+05
       312     3110.0  6.42633E+02  3.31786E+05
       313     3120.0  6.63800E+02  3.38424E+05
       314     3130.0  6.26400E+02  3.44688E+05
       315     3140.0  6.21033E+02  3.50898E+05
       316     3150.0  6.63800E+02  3.57536E+05
       317     3160.0  6.73967E+02  3.64276E+05
       318     3170.0  6.94500E+02  3.71221E+05
       319     3180.0  7.35100E+02  3.78572E+05
       320     3190.0  7.59167E+02  3.86164E+05
       321     3200.0  7.39967E+02  3.93563E+05
       322     3210.0  7.39633E+02  4.00960E+05
       323     3220.0  7.60133E+02  4.08561E+05
       324     3230.0  8.25567E+02  4.16817E+05
       325     3240.0  8.37900E+02  4.25196E+05
       326     3250.0  8.10067E+02  4.33296E+05
       327     3260.0  8.16200E+02  4.41458E+05
       328     3270.0  8.29967E+02  4.49758E+05
       329     3280.0  8.31133E+02  4.58069E+05
       330     3290.0  8.30267E+02  4.66372E+05
       331     3300.0  8.82067E+02  4.75193E+05
       332     3310.0  9.27500E+02  4.84468E+05
       333     3320.0  9.07567E+02  4.93543E+05
       334     3330.0  8.71800E+02  5.02261E+05
       335     3340.0  8.96433E+02  5.11226E+05
       336     3350.0  9.25267E+02  5.20478E+05
       337     3360.0  9.63933E+02  5.30118E+05
       338     3370.0  9.99467E+02  5.40112E+05
       339     3380.0  1.04383E+03  5.50551E+05
       340     3390.0  1.04660E+03  5.61017E+05
       341     3400.0  1.02847E+03  5.71301E+05
       342     3410.0  1.03703E+03  5.81672E+05
       343     3420.0  1.10033E+03  5.92675E+05
       344     3430.0  1.14307E+03  6.04106E+05
       345     3440.0  1.13863E+03  6.15492E+05
       346     3450.0  1.13917E+03  6.26884E+05
       347     3460.0  1.13537E+03  6.38237E+05
       348     3470.0  1.15517E+03  6.49789E+05
       349     3480.0  1.14720E+03  6.61261E+05
       350     3490.0  1.21153E+03  6.73376E+05
       351     3500.0  1.25593E+03  6.85936E+05
       352     3510.0  1.26950E+03  6.98631E+05
       353     3520.0  1.24260E+03  7.11057E+05
       354     3530.0  1.21943E+03  7.23251E+05
       355     3540.0  1.27707E+03  7.36022E+05
       356     3550.0  1.32477E+03  7.49269E+05
       357     3560.0  1.34667E+03  7.62736E+05
       358     3570.0  1.38907E+03  7.76627E+05
       359     3580.0  1.43997E+03  7.91026E+05
       360     3590.0  1.40960E+03  8.05122E+05
       361     3600.0  1.41180E+03  8.19240E+05
       362     3610.0  1.46777E+03  8.33918E+05
       363     3620.0  1.55107E+03  8.49429E+05
       364     3630.0  1.58783E+03  8.65307E+05
       365     3640.0  1.56063E+03  8.80913E+05
       366     3650.0  1.55897E+03  8.96503E+05
       367     3660.0  1.58217E+03  9.12325E+05
       368     3670.0  1.59813E+03  9.28306E+05
       369     3680.0  1.61547E+03  9.44461E+05
       370     3690.0  1.68023E+03  9.61263E+05
       371     3700.0  1.73830E+03  9.78646E+05
       372     3710.0  1.74137E+03  9.96060E+05
       373     3720.0  1.69230E+03  1.01298E+06
       374     3730.0  1.72627E+03  1.03025E+06
       375     3740.0  1.77587E+03  1.04800E+06
       376     3750.0  1.86147E+03  1.06662E+06
       377     3760.0  1.86947E+03  1.08531E+06
       378     3770.0  1.93480E+03  1.10466E+06
       379     3780.0  1.96773E+03  1.12434E+06
       380     3790.0  1.91053E+03  1.14344E+06
       381     3800.0  1.95647E+03  1.16301E+06
       382     3810.0  2.06370E+03  1.18365E+06
       383     3820.0  2.13910E+03  1.20504E+06
       384     3830.0  2.12887E+03  1.22633E+06
       385     3840.0  2.14413E+03  1.24777E+06
       386     3850.0  2.12333E+03  1.26900E+06
       387     3860.0  2.17753E+03  1.29078E+06
       388     3870.0  2.18187E+03  1.31259E+06
       389     3880.0  2.28310E+03  1.33542E+06
       390     3890.0  2.33860E+03  1.35881E+06
       391     3900.0  2.38433E+03  1.38265E+06
       392     3910.0  2.35093E+03  1.40616E+06
       393     3920.0  2.30693E+03  1.42923E+06
       394     3930.0  2.39487E+03  1.45318E+06
       395     3940.0  2.48473E+03  1.47803E+06
       396     3950.0  2.52467E+03  1.50328E+06
       397     3960.0  2.56497E+03  1.52893E+06
       398     3970.0  2.65133E+03  1.55544E+06
       399     3980.0  2.62243E+03  1.58166E+06
       400     3990.0  2.61393E+03  1.60780E+06
       401     4000.0  2.73293E+03  1.63513E+06
       402     4010.0  2.83373E+03  1.66347E+06
       403     4020.0  2.90847E+03  1.69255E+06
       404     4030.0  2.87967E+03  1.72135E+06
       405     4040.0  2.87667E+03  1.75012E+06
       406     4050.0  2.91107E+03  1.77923E+06
       407     4060.0  2.98643E+03  1.80909E+06
       408     4070.0  3.01923E+03  1.83928E+06
       409     4080.0  3.10887E+03  1.87037E+06
       410     4090.0  3.18173E+03  1.90219E+06
       411     4100.0  3.22887E+03  1.93448E+06
       412     4110.0  3.11867E+03  1.96567E+06
       413     4120.0  3.18027E+03  1.99747E+06
       414     4130.0  3.29827E+03  2.03045E+06
       415     4140.0  3.42437E+03  2.06469E+06
       416     4150.0  3.40030E+03  2.09870E+06
       417     4160.0  3.50560E+03  2.13375E+06
       418     4170.0  3.56787E+03  2.16943E+06
       419     4180.0  3.49553E+03  2.20439E+06
       420     4190.0  3.55047E+03  2.23989E+06
       421     4200.0  3.74640E+03  2.27736E+06
       422     4210.0  3.86337E+03  2.31599E+06
       423     4220.0  3.87013E+03  2.35469E+06
       424     4230.0  3.87377E+03  2.39343E+06
       425     4240.0  3.88413E+03  2.43227E+06
       426     4250.0  3.98123E+03  2.47208E+06
       427     4260.0  4.01923E+03  2.51228E+06
       428     4270.0  4.11043E+03  2.55338E+06
       429     4280.0  4.24703E+03  2.59585E+06
       430     4290.0  4.31720E+03  2.63902E+06
       431     4300.0  4.27677E+03  2.68179E+06
       432     4310.0  4.19403E+03  2.72373E+06
       433     4320.0  4.38310E+03  2.76756E+06
       434     4330.0  4.52233E+03  2.81278E+06
       435     4340.0  4.54390E+03  2.85822E+06
       436     4350.0  4.59300E+03  2.90415E+06
       437     4360.0  4.75687E+03  2.95172E+06
       438     4370.0  4.69570E+03  2.99868E+06
       439     4380.0  4.70590E+03  3.04574E+06
       440     4390.0  4.89120E+03  3.09465E+06
       441     4400.0  5.09787E+03  3.14563E+06
       442     4410.0  5.15827E+03  3.19721E+06
       443     4420.0  5.16723E+03  3.24888E+06
       444     4430.0  5.16387E+03  3.30052E+06
       445     4440.0  5.22127E+03  3.35273E+06
       446     4450.0  5.35577E+03  3.40629E+06
       447     4460.0  5.43690E+03  3.46066E+06
       448     4470.0  5.56987E+03  3.51636E+06
       449     4480.0  5.70417E+03  3.57340E+06
       450     4490.0  5.73197E+03  3.63072E+06
       451     4500.0  5.61227E+03  3.68684E+06
       452     4510.0  5.72427E+03  3.74409E+06
       453     4520.0  5.90803E+03  3.80317E+06
       454     4530.0  6.05277E+03  3.86369E+06
       455     4540.0  6.06197E+03  3.92431E+06
       456     4550.0  6.21217E+03  3.98644E+06
       457     4560.0  6.31247E+03  4.04956E+06
       458     4570.0  6.21470E+03  4.11171E+06
       459     4580.0  6.35130E+03  4.17522E+06
       460     4590.0  6.61057E+03  4.24133E+06
       461     4600.0  6.80110E+03  4.30934E+06
       462     4610.0  6.81120E+03  4.37745E+06
       463     4620.0  6.84760E+03  4.44593E+06
       464     4630.0  6.86963E+03  4.51462E+06
       465     4640.0  7.04513E+03  4.58507E+06
       466     4650.0  7.15277E+03  4.65660E+06
       467     4660.0  7.26223E+03  4.72922E+06
       468     4670.0  7.47543E+03  4.80398E+06
       469     4680.0  7.56350E+03  4.87961E+06
       470     4690.0  7.53053E+03  4.95492E+06
       471     4700.0  7.43700E+03  5.02929E+06
       472     4710.0  7.72643E+03  5.10655E+06
       473     4720.0  7.94480E+03  5.18600E+06
       474     4730.0  7.99140E+03  5.26591E+06
       475     4740.0  8.05813E+03  5.34650E+06
       476     4750.0  8.29170E+03  5.42941E+06
       477     4760.0  8.21423E+03  5.51155E+06
       478     4770.0  8.26840E+03  5.59424E+06
       479     4780.0  8.57200E+03  5.67996E+06
       480     4790.0  8.83890E+03  5.76835E+06
       481     4800.0  8.98260E+03  5.85817E+06
       482     4810.0  9.01987E+03  5.94837E+06
       483     4820.0  9.01700E+03  6.03854E+06
       484     4830.0  9.13700E+03  6.12991E+06
       485     4840.0  9.36587E+03  6.22357E+06
       486     4850.0  9.47193E+03  6.31829E+06
       487     4860.0  9.67800E+03  6.41507E+06
       488     4870.0  9.89513E+03  6.51402E+06
       489     4880.0  9.92097E+03  6.61323E+06
       490     4890.0  9.81710E+03  6.71140E+06
       491     4900.0  1.00119E+04  6.81152E+06
       492     4910.0  1.02922E+04  6.91444E+06
       493     4920.0  1.04920E+04  7.01936E+06
       494     4930.0  1.05510E+04  7.12487E+06
       495     4940.0  1.07011E+04  7.23188E+06
       496     4950.0  1.08911E+04  7.34080E+06
       497     4960.0  1.07868E+04  7.44866E+06
       498     4970.0  1.10464E+04  7.55913E+06
       499     4980.0  1.13791E+04  7.67292E+06
       500     4990.0  1.16775E+04  7.78969E+06
       501        0.0  1.10000E+00  1.10000E+01
       502      200.4  2.00000E-01  6.70000E+01
       503      400.8  1.60000E+00  1.88000E+02
       504      601.2  1.40000E+00  4.39000E+02
       505      801.6  3.60000E+00  9.62000E+02
       506     1002.0  6.43333E+00  1.90267E+03
       507     1202.4  1.32000E+01  3.62900E+03
       508     1402.8  2.16667E+01  6.45533E+03
       509     1603.2  2.88333E+01  1.12257E+04
       510     1803.6  4.66000E+01  1.88723E+04
       511     2004.0  7.02000E+01  3.07757E+04
       512     2204.4  1.20833E+02  4.92907E+04
       513     2404.8  1.90800E+02  7.73800E+04
       514     2605.2  2.66567E+02  1.18900E+05
       515     2805.6  3.82267E+02  1.79803E+05
       516     3006.0  5.33333E+02  2.67950E+05
       517     3206.4  7.39967E+02  3.93563E+05
       518     3406.8  1.02847E+03  5.71301E+05
       519     3607.2  1.41180E+03  8.19240E+05
       520     3807.6  1.95647E+03  1.16301E+06
       521     4008.0  2.73293E+03  1.63513E+06
       522     4208.4  3.74640E+03  2.27736E+06
       523     4408.8  5.09787E+03  3.14563E+06
       524     4609.2  6.80110E+03  4.30934E+06
       525     4809.6  8.98260E+03  5.85817E+06
       526     5010.0  1.18048E+04  8.02534E+06
       527     5210.4  1.53218E+04  1.07541E+07
       528     5410.8  1.99831E+04  1.43193E+07
       529     5611.2  2.59807E+04  1.89531E+07
       530     5811.6  3.37182E+04  2.49432E+07
       531     6012.0  4.33420E+04  3.26473E+07
       532     6212.4  5.54407E+04  4.25088E+07
       533     6412.8  7.03380E+04  5.50731E+07
       534     6613.2  8.89937E+04  7.10138E+07
       535     6813.6  1.12162E+05  9.11521E+07
       536     7014.0  1.41161E+05  1.16494E+08
       537     7214.4  1.76646E+05  1.48256E+08
       538     7414.8  2.20059E+05  1.87920E+08
       539     7615.2  2.73351E+05  2.37273E+08
       540     7815.6  3.37905E+05  2.98476E+08
       541     8016.0  4.16075E+05  3.74113E+08
       542     8216.4  5.11547E+05  4.67304E+08
       543     8416.8  6.27652E+05  5.81770E+08
       544     8617.2  7.68543E+05  7.21953E+08
       545     8817.6  9.39283E+05  8.93144E+08
       546     9018.0  1.14419E+06  1.10161E+09
       547     9218.4  1.38867E+06  1.35477E+09
       548     9418.8  1.67890E+06  1.66140E+09
       549     9619.2  2.02337E+06  2.03185E+09
       550     9819.6  2.43307E+06  2.47832E+09
       551    10020.0  2.94545E+06  3.04455E+09
       552    10220.4  3.53378E+06  3.69432E+09
       553    10420.8  4.22793E+06  4.47192E+09
       554    10621.2  5.04471E+06  5.40046E+09
       555    10821.6  6.00468E+06  6.50685E+09
       556    11022.0  7.13134E+06  7.82246E+09
       557    11222.4  8.45122E+06  9.38367E+09
       558    11422.8  9.99769E+06  1.12327E+10
       559    11623.2  1.18093E+07  1.34184E+10
       560    11823.6  1.39258E+07  1.59974E+10
       561    12024.0  1.63903E+07  1.90348E+10
       562    12224.4  1.92554E+07  2.26057E+10
       563    12424.8  2.25790E+07  2.67966E+10
       564    12625.3  2.64258E+07  3.17067E+10
       565    12825.7  3.08793E+07  3.74501E+10
       566    13026.1  3.60335E+07  4.41571E+10
       567    13226.5  4.19854E+07  5.19774E+10
       568    13426.9  4.88515E+07  6.10814E+10
       569    13627.3  5.67649E+07  7.16641E+10
       570    13827.7  6.58565E+07  8.39474E+10
       571    14028.1  7.62789E+07  9.81837E+10
       572    14228.5  8.82137E+07  1.14660E+11
       573    14428.9  1.01864E+08  1.33703E+11
       574    14629.3  1.17472E+08  1.55683E+11
       575    14829.7  1.35305E+08  1.81017E+11
       576    15030.1  1.56822E+08  2.11749E+11
       577    15230.5  1.80198E+08  2.45513E+11
       578    15430.9  2.06784E+08  2.84280E+11
       579    15631.3  2.36987E+08  3.28737E+11
       580    15831.7  2.71253E+08  3.79656E+11
       581    16032.1  3.10118E+08  4.37911E+11
       582    16232.5  3.54180E+08  5.04479E+11
       583    16432.9  4.04082E+08  5.80461E+11
       584    16633.3  4.60512E+08  6.67091E+11
       585    16833.7  5.24245E+08  7.65753E+11
       586    17034.1  5.96138E+08  8.77998E+11
       587    17234.5  6.77143E+08  1.00556E+12
       588    17434.9  7.68326E+08  1.15038E+12
       589    17635.3  8.70913E+08  1.31462E+12
       590    17835.7  9.86249E+08  1.50070E+12
       591    18036.1  1.11581E+09  1.71133E+12
       592    18236.5  1.26124E+09  1.94949E+12
       593    18436.9  1.42429E+09  2.21855E+12
       594    18637.3  1.60686E+09  2.52221E+12
       595    18837.7  1.81109E+09  2.86462E+12
       596    19038.1  2.03939E+09  3.25037E+12
       597    19238.5  2.29439E+09  3.68455E+12
       598    19438.9  2.57906E+09  4.17282E+12
       599    19639.3  2.89666E+09  4.72144E+12
       600    19839.7  3.25073E+09  5.33735E+12
       601    20040.1  3.66615E+09  6.06487E+12
       602    20240.5  4.10717E+09  6.84359E+12
       603    20440.9  4.59745E+09  7.71562E+12
       604    20641.3  5.14213E+09  8.69135E+12
       605    20841.7  5.74692E+09  9.78226E+12
       606    21042.1  6.41804E+09  1.10010E+13
       607    21242.5  7.16220E+09  1.23615E+13
       608    21442.9  7.98668E+09  1.38791E+13
       609    21643.3  8.89945E+09  1.55707E+13
       610    21843.7  9.90921E+09  1.74549E+13
       611    22044.1  1.10255E+10  1.95521E+13
       612    22244.5  1.22587E+10  2.18846E+13
       613    22444.9  1.36204E+10  2.44771E+13
       614    22645.3  1.51231E+10  2.73566E+13
       615    22845.7  1.67804E+10  3.05526E+13
       616    23046.1  1.86070E+10  3.40975E+13
       617    23246.5  2.06187E+10  3.80269E+13
       618    23446.9  2.28329E+10  4.23795E+13
       619    23647.3  2.52685E+10  4.71979E+13
       620    23847.7  2.79459E+10  5.25285E+13
       621    24048.1  3.08876E+10  5.84220E+13
       622    24248.5  3.41180E+10  6.49338E+13
       623    24448.9  3.76636E+10  7.21243E+13
       624    24649.3  4.15529E+10  8.00595E+13
       625    24849.7  4.58166E+10  8.88113E+13
       626    25050.1  5.07331E+10  9.89654E+13
       627    25250.5  5.58710E+10  1.09644E+14
       628    25450.9  6.14940E+10  1.21400E+14
       629    25651.3  6.76451E+10  1.34336E+14
       630    25851.7  7.43705E+10  1.48561E+14
       631    26052.1  8.17196E+10  1.64196E+14
       632    26252.5  8.97462E+10  1.81371E+14
       633    26452.9  9.85077E+10  2.00227E+14
       634    26653.3  1.08067E+11  2.20919E+14
       635    26853.7  1.18490E+11  2.43611E+14
       636    27054.1  1.29852E+11  2.68486E+14
       637    27254.5  1.42231E+11  2.95739E+14
       638    27454.9  1.55711E+11  3.25582E+14
       639    27655.3  1.70383E+11  3.58244E+14
       640    27855.7  1.86346E+11  3.93974E+14
       641    28056.1  2.03705E+11  4.33042E+14
       642    28256.5  2.22572E+11  4.75738E+14
       643    28456.9  2.43070E+11  5.22376E+14
       644    28657.3  2.65329E+11  5.73297E+14
       645    28857.7  2.89491E+11  6.28867E+14
       646    29058.1  3.15708E+11  6.89483E+14
       647    29258.5  3.44143E+11  7.55572E+14
       648    29458.9  3.74968E+11  8.27596E+14
       649    29659.3  4.08372E+11  9.06053E+14
       650    29859.7  4.44554E+11  9.91478E+14
       651    30060.1  4.85768E+11  1.08931E+15
       652    30260.5  5.28334E+11  1.19088E+15
       653    30460.9  5.74383E+11  1.30132E+15
       654    30661.3  6.24182E+11  1.42136E+15
       655    30861.7  6.78013E+11  1.55178E+15
       656    31062.1  7.36181E+11  1.69341E+15
       657    31262.5  7.99010E+11  1.84717E+15
       658    31462.9  8.66848E+11  2.01400E+15
       659    31663.3  9.40065E+11  2.19497E+15
       660    31863.7  1.01906E+12  2.39118E+15
       661    32064.1  1.10426E+12  2.60383E+15
       662    32264.5  1.19611E+12  2.83421E+15
       663    32464.9  1.29510E+12  3.08370E+15
       664    32665.3  1.40175E+12  3.35379E+15
       665    32865.7  1.51661E+12  3.64606E+15
       666    33066.1  1.64026E+12  3.96221E+15
       667    33266.5  1.77333E+12  4.30407E+15
       668    33466.9  1.91649E+12  4.67360E+15
       669    33667.3  2.07045E+12  5.07288E+15
       670    33867.7  2.23598E+12  5.50415E+15
       671    34068.1  2.41387E+12  5.96981E+15
       672    34268.5  2.60500E+12  6.47243E+15
       673    34468.9  2.81027E+12  7.01474E+15
       674    34669.3  3.03066E+12  7.59967E+15
       675    34869.7  3.26721E+12  8.23036E+15
       676    35070.1  3.53418E+12  8.94550E+15
       677    35270.5  3.80739E+12  9.68071E+15
       678    35470.9  4.10034E+12  1.04726E+16
       679    35671.3  4.41437E+12  1.13253E+16
       680    35871.7  4.75088E+12  1.22431E+16
       681    36072.1  5.11138E+12  1.32307E+16
       682    36272.5  5.49746E+12  1.42931E+16
       683    36472.9  5.91082E+12  1.54355E+16
       684    36673.3  6.35324E+12  1.66636E+16
       685    36873.7  6.82663E+12  1.79835E+16
       686    37074.1  7.33302E+12  1.94014E+16
       687    37274.5  7.87455E+12  2.09243E+16
       688    37474.9  8.45347E+12  2.25593E+16
       689    37675.4  9.07221E+12  2.43143E+16
       690    37875.8  9.73331E+12  2.61974E+16
       691    38076.2  1.04395E+13  2.82175E+16
       692    38276.6  1.11936E+13  3.03837E+16
       693    38477.0  1.19986E+13  3.27061E+16
       694    38677.4  1.28579E+13  3.51951E+16
       695    38877.8  1.37746E+13  3.78620E+16
       696    39078.2  1.47526E+13  4.07185E+16
       697    39278.6  1.57955E+13  4.37774E+16
       698    39479.0  1.69074E+13  4.70521E+16
       699    39679.4  1.80926E+13  5.05568E+16
       700    39879.8  1.93554E+13  5.43066E+16
       701    40080.2  2.07703E+13  5.85252E+16
       702    40280.6  2.22077E+13  6.28287E+16
       703    40481.0  2.37382E+13  6.74293E+16
       704    40681.4  2.53674E+13  7.23463E+16
       705    40881.8  2.71012E+13  7.76001E+16
       706    41082.2  2.89459E+13  8.32121E+16
       707    41282.6  3.09082E+13  8.92053E+16
       708    41483.0  3.29950E+13  9.56040E+16
       709    41683.4  3.52136E+13  1.02434E+17
       710    41883.8  3.75719E+13  1.09722E+17
       711    42084.2  4.00780E+13  1.17497E+17
       712    42284.6  4.27406E+13  1.25789E+17
       713    42485.0  4.55688E+13  1.34631E+17
       714    42685.4  4.85722E+13  1.44057E+17
       715    42885.8  5.17609E+13  1.54104E+17
       716    43086.2  5.51455E+13  1.64808E+17
       717    43286.6  5.87374E+13  1.76210E+17
       718    43487.0  6.25483E+13  1.88354E+17
       719    43687.4  6.65907E+13  2.01285E+17
       720    43887.8  7.08777E+13  2.15049E+17
       721    44088.2  7.54231E+13  2.29697E+17
       722    44288.6  8.02414E+13  2.45283E+17
       723    44489.0  8.53479E+13  2.61862E+17
       724    44689.4  9.07588E+13  2.79495E+17
       725    44889.8  9.64908E+13  2.98243E+17
       726    45090.2  1.02875E+14  3.19202E+17
       727    45290.6  1.09322E+14  3.40447E+17
       728    45491.0  1.16147E+14  3.63022E+17
       729    45691.4  1.23372E+14  3.87003E+17
       730    45891.8  1.31017E+14  4.12473E+17
       731    46092.2  1.39107E+14  4.39519E+17
       732    46292.6  1.47664E+14  4.68230E+17
       733    46493.0  1.56714E+14  4.98705E+17
       734    46693.4  1.66283E+14  5.31044E+17
       735    46893.8  1.76400E+14  5.65353E+17
       736    47094.2  1.87093E+14  6.01746E+17
       737    47294.6  1.98393E+14  6.40341E+17
       738    47495.0  2.10333E+14  6.81262E+17
       739    47695.4  2.22946E+14  7.24642E+17
       740    47895.8  2.36267E+14  7.70617E+17
       741    48096.2  2.50334E+14  8.19335E+17
       742    48296.6  2.65185E+14  8.70948E+17
       743    48497.0  2.80862E+14  9.25617E+17
       744    48697.4  2.97406E+14  9.83511E+17
       745    48897.8  3.14864E+14  1.04481E+18
       746    49098.2  3.33282E+14  1.10970E+18
       747    49298.6  3.52710E+14  1.17838E+18
       748    49499.0  3.73198E+14  1.25105E+18
       749    49699.4  3.94801E+14  1.32794E+18
       750    49899.8  4.17576E+14  1.40928E+18
       751    50100.2  4.42815E+14  1.49972E+18
       752    50300.6  4.68180E+14  1.59092E+18
       753    50501.0  4.94907E+14  1.68734E+18
       754    50701.4  5.23063E+14  1.78926E+18
       755    50901.8  5.52720E+14  1.89696E+18
       756    51102.2  5.83953E+14  2.01075E+18
       757    51302.6  6.16839E+14  2.13097E+18
       758    51503.0  6.51461E+14  2.25794E+18
       759    51703.4  6.87904E+14  2.39203E+18
       760    51903.8  7.26257E+14  2.53360E+18
       761    52104.2  7.66614E+14  2.68306E+18
       762    52304.6  8.09072E+14  2.84080E+18
       763    52505.0  8.53735E+14  3.00727E+18
       764    52705.4  9.00707E+14  3.18291E+18
       765    52905.8  9.50102E+14  3.36820E+18
       766    53106.2  1.00204E+15  3.56363E+18
       767    53306.6  1.05663E+15  3.76972E+18
       768    53507.0  1.11401E+15  3.98703E+18
       769    53707.4  1.17431E+15  4.21611E+18
       770    53907.8  1.23767E+15  4.45757E+18
       771    54108.2  1.30424E+15  4.71204E+18
       772    54308.6  1.37416E+15  4.98018E+18
       773    54509.0  1.44760E+15  5.26266E+18
       774    54709.4  1.52471E+15  5.56021E+18
       775    54909.8  1.60567E+15  5.87359E+18
       776    55110.2  1.69502E+15  6.22053E+18
       777    55310.6  1.78445E+15  6.56885E+18
       778    55511.0  1.87830E+15  6.93552E+18
       779    55711.4  1.97678E+15  7.32144E+18
       780    55911.8  2.08009E+15  7.72756E+18
       781    56112.2  2.18847E+15  8.15488E+18
       782    56312.6  2.30214E+15  8.60442E+18
       783    56513.0  2.42134E+15  9.07727E+18
       784    56713.4  2.54633E+15  9.57456E+18
       785    56913.8  2.67737E+15  1.00975E+19
       786    57114.2  2.81474E+15  1.06473E+19
       787    57314.6  2.95871E+15  1.12252E+19
       788    57515.0  3.10958E+15  1.18327E+19
       789    57715.4  3.26766E+15  1.24711E+19
       790    57915.8  3.43328E+15  1.31419E+19
       791    58116.2  3.60677E+15  1.38466E+19
       792    58316.6  3.78848E+15  1.45869E+19
       793    58517.0  3.97878E+15  1.53644E+19
       794    58717.4  4.17803E+15  1.61810E+19
       795    58917.8  4.38664E+15  1.70383E+19
       796    59118.2  4.60502E+15  1.79384E+19
       797    59318.6  4.83359E+15  1.88832E+19
       798    59519.0  5.07279E+15  1.98749E+19
       799    59719.4  5.32310E+15  2.09155E+19
       800    59919.8  5.58499E+15  2.20075E+19
       801    60120.2  5.87299E+15  2.32118E+19
       802    60320.6  6.16020E+15  2.44163E+19
       803    60521.0  6.46059E+15  2.56797E+19
       804    60721.4  6.77471E+15  2.70045E+19
       805    60921.8  7.10316E+15  2.83937E+19
       806    61122.2  7.44654E+15  2.98501E+19
       807    61322.6  7.80548E+15  3.13769E+19
       808    61523.0  8.18065E+15  3.29771E+19
       809    61723.4  8.57273E+15  3.46541E+19
       810    61923.8  8.98243E+15  3.64114E+19
       811    62124.2  9.41049E+15  3.82525E+19
       812    62324.6  9.85769E+15  4.01812E+19
       813    62525.1  1.03248E+16  4.22015E+19
       814    62725.5  1.08127E+16  4.43173E+19
       815    62925.9  1.13222E+16  4.65330E+19
       816    63126.3  1.18542E+16  4.88529E+19
       817    63326.7  1.24097E+16  5.12817E+19
       818    63527.1  1.29896E+16  5.38241E+19
       819    63727.5  1.35949E+16  5.64851E+19
       820    63927.9  1.42266E+16  5.92700E+19
       821    64128.3  1.48859E+16  6.21841E+19
       822    64328.7  1.55738E+16  6.52330E+19
       823    64529.1  1.62916E+16  6.84226E+19
       824    64729.5  1.70404E+16  7.17590E+19
       825    64929.9  1.78214E+16  7.52486E+19
       826    65130.3  1.86777E+16  7.90846E+19
       827    65330.7  1.95291E+16  8.29089E+19
       828    65531.1  2.04168E+16  8.69073E+19
       829    65731.5  2.13424E+16  9.10873E+19
       830    65931.9  2.23074E+16  9.54564E+19
       831    66132.3  2.33133E+16  1.00023E+20
       832    66332.7  2.43618E+16  1.04795E+20
       833    66533.1  2.54544E+16  1.09781E+20
       834    66733.5  2.65931E+16  1.14991E+20
       835    66933.9  2.77795E+16  1.20433E+20
       836    67134.3  2.90156E+16  1.26118E+20
       837    67334.7  3.03032E+16  1.32056E+20
       838    67535.1  3.16445E+16  1.38256E+20
       839    67735.5  3.30415E+16  1.44731E+20
       840    67935.9  3.44963E+16  1.51491E+20
       841    68136.3  3.60112E+16  1.58548E+20
       842    68336.7  3.75886E+16  1.65915E+20
       843    68537.1  3.92307E+16  1.73604E+20
       844    68737.5  4.09402E+16  1.81628E+20
       845    68937.9  4.27195E+16  1.90002E+20
       846    69138.3  4.45714E+16  1.98739E+20
       847    69338.7  4.64986E+16  2.07855E+20
       848    69539.1  4.85040E+16  2.17364E+20
       849    69739.5  5.05905E+16  2.27282E+20
       850    69939.9  5.27612E+16  2.37627E+20
       851    70140.3  5.51346E+16  2.48966E+20
       852    70340.7  5.74880E+16  2.60238E+20
       853    70541.1  5.99357E+16  2.71991E+20
       854    70741.5  6.24811E+16  2.84244E+20
       855    70941.9  6.51280E+16  2.97017E+20
       856    71142.3  6.78801E+16  3.10329E+20
       857    71342.7  7.07412E+16  3.24204E+20
       858    71543.1  7.37156E+16  3.38663E+20
       859    71743.5  7.68073E+16  3.53728E+20
       860    71943.9  8.00206E+16  3.69425E+20
       861    72144.3  8.33601E+16  3.85778E+20
       862    72344.7  8.68304E+16  4.02812E+20
       863    72545.1  9.04362E+16  4.20554E+20
       864    72745.5  9.41825E+16  4.39033E+20
       865    72945.9  9.80744E+16  4.58275E+20
       866    73146.3  1.02117E+17  4.78312E+20
       867    73346.7  1.06317E+17  4.99174E+20
       868    73547.1  1.10678E+17  5.20892E+20
       869    73747.5  1.15207E+17  5.43501E+20
       870    73947.9  1.19910E+17  5.67033E+20
       871    74148.3  1.24793E+17  5.91525E+20
       872    74348.7  1.29863E+17  6.17012E+20
       873    74549.1  1.35126E+17  6.43534E+20
       874    74749.5  1.40589E+17  6.71130E+20
       875    74949.9  1.46260E+17  6.99840E+20
       876    75150.3  1.52445E+17  7.31230E+20
       877    75350.7  1.58564E+17  7.62358E+20
       878    75551.1  1.64913E+17  7.94734E+20
       879    75751.5  1.71501E+17  8.28404E+20
       880    75951.9  1.78336E+17  8.63418E+20
       881    76152.3  1.85426E+17  8.99825E+20
       882    76352.7  1.92781E+17  9.37678E+20
       883    76553.1  2.00410E+17  9.77031E+20
       884    76753.5  2.08322E+17  1.01794E+21
       885    76953.9  2.16527E+17  1.06046E+21
       886    77154.3  2.25036E+17  1.10465E+21
       887    77354.7  2.33858E+17  1.15058E+21
       888    77555.1  2.43005E+17  1.19831E+21
       889    77755.5  2.52488E+17  1.24790E+21
       890    77955.9  2.62318E+17  1.29942E+21
       891    78156.3  2.72507E+17  1.35295E+21
       892    78356.7  2.83067E+17  1.40855E+21
       893    78557.1  2.94012E+17  1.46631E+21
       894    78757.5  3.05354E+17  1.52630E+21
       895    78957.9  3.17106E+17  1.58859E+21
       896    79158.3  3.29283E+17  1.65329E+21
       897    79358.7  3.41899E+17  1.72046E+21
       898    79559.1  3.54969E+17  1.79021E+21
       899    79759.5  3.68508E+17  1.86261E+21
       900    79959.9  3.82531E+17  1.93778E+21
       901    80160.3  3.97795E+17  2.01978E+21
       902    80360.7  4.12863E+17  2.10091E+21
       903    80561.1  4.28466E+17  2.18511E+21
       904    80761.5  4.44624E+17  2.27249E+21
       905    80961.9  4.61353E+17  2.36317E+21
       906    81162.3  4.78673E+17  2.45725E+21
       907    81362.7  4.96603E+17  2.55485E+21
       908    81563.1  5.15164E+17  2.65611E+21
       909    81763.5  5.34376E+17  2.76115E+21
       910    81963.9  5.54260E+17  2.87010E+21
       911    82164.3  5.74839E+17  2.98310E+21
       912    82364.7  5.96136E+17  3.10029E+21
       913    82565.1  6.18172E+17  3.22182E+21
       914    82765.5  6.40974E+17  3.34784E+21
       915    82965.9  6.64565E+17  3.47850E+21
       916    83166.3  6.88971E+17  3.61396E+21
       917    83366.7  7.14218E+17  3.75439E+21
       918    83567.1  7.40334E+17  3.89996E+21
       919    83767.5  7.67346E+17  4.05085E+21
       920    83967.9  7.95284E+17  4.20724E+21
       921    84168.3  8.24176E+17  4.36931E+21
       922    84368.7  8.54054E+17  4.53727E+21
       923    84569.1  8.84948E+17  4.71130E+21
       924    84769.5  9.16892E+17  4.89163E+21
       925    84969.9  9.49918E+17  5.07846E+21
       926    85170.3  9.85798E+17  5.28187E+21
       927    85370.7  1.02115E+18  5.48272E+21
       928    85571.1  1.05769E+18  5.69077E+21
       929    85771.5  1.09547E+18  5.90625E+21
       930    85971.9  1.13450E+18  6.12942E+21
       931    86172.3  1.17485E+18  6.36053E+21
       932    86372.7  1.21654E+18  6.59986E+21
       933    86573.1  1.25962E+18  6.84767E+21
       934    86773.5  1.30413E+18  7.10424E+21
       935    86973.9  1.35012E+18  7.36987E+21
       936    87174.3  1.39763E+18  7.64486E+21
       937    87374.7  1.44671E+18  7.92951E+21
       938    87575.2  1.49741E+18  8.22415E+21
       939    87775.6  1.54977E+18  8.52910E+21
       940    87976.0  1.60386E+18  8.84470E+21
       941    88176.4  1.65972E+18  9.17131E+21
       942    88376.8  1.71740E+18  9.50928E+21
       943    88577.2  1.77697E+18  9.85898E+21
       944    88777.6  1.83847E+18  1.02208E+22
       945    88978.0  1.90198E+18  1.05951E+22
       946    89178.4  1.96754E+18  1.09824E+22
       947    89378.8  2.03523E+18  1.13830E+22
       948    89579.2  2.10510E+18  1.17973E+22
       949    89779.6  2.17723E+18  1.22259E+22
       950    89980.0  2.25167E+18  1.26691E+22
       951    90180.4  2.33242E+18  1.31508E+22
       952    90380.8  2.41184E+18  1.36255E+22
       953    90581.2  2.49380E+18  1.41165E+22
       954    90781.6  2.57838E+18  1.46241E+22
       955    90982.0  2.66565E+18  1.51489E+22
       956    91182.4  2.75569E+18  1.56914E+22
       957    91382.8  2.84859E+18  1.62522E+22
       958    91583.2  2.94443E+18  1.68320E+22
       959    91783.6  3.04330E+18  1.74312E+22
       960    91984.0  3.14528E+18  1.80505E+22
       961    92184.4  3.25047E+18  1.86906E+22
       962    92384.8  3.35897E+18  1.93520E+22
       963    92585.2  3.47087E+18  2.00355E+22
       964    92785.6  3.58627E+18  2.07417E+22
       965    92986.0  3.70527E+18  2.14714E+22
       966    93186.4  3.82797E+18  2.22253E+22
       967    93386.8  3.95450E+18  2.30041E+22
       968    93587.2  4.08495E+18  2.38086E+22
       969    93787.6  4.21944E+18  2.46397E+22
       970    93988.0  4.35809E+18  2.54980E+22
       971    94188.4  4.50102E+18  2.63846E+22
       972    94388.8  4.64835E+18  2.73002E+22
       973    94589.2  4.80020E+18  2.82457E+22
       974    94789.6  4.95672E+18  2.92221E+22
       975    94990.0  5.11803E+18  3.02303E+22
       976    95190.4  5.29271E+18  3.13242E+22
       977    95390.8  5.46427E+18  3.24007E+22
       978    95591.2  5.64106E+18  3.35120E+22
       979    95791.6  5.82322E+18  3.46593E+22
       980    95992.0  6.01090E+18  3.58435E+22
       981    96192.4  6.20427E+18  3.70659E+22
       982    96392.8  6.40347E+18  3.83276E+22
       983    96593.2  6.60868E+18  3.96297E+22
       984    96793.6  6.82007E+18  4.09736E+22
       985    96994.0  7.03780E+18  4.23603E+22
       986    97194.4  7.26206E+18  4.37913E+22
       987    97394.8  7.49304E+18  4.52679E+22
       988    97595.2  7.73091E+18  4.67913E+22
       989    97795.6  7.97587E+18  4.83631E+22
       990    97996.0  8.22813E+18  4.99847E+22
       991    98196.4  8.48787E+18  5.16574E+22
       992    98396.8  8.75532E+18  5.33830E+22
       993    98597.2  9.03068E+18  5.51628E+22
       994    98797.6  9.31417E+18  5.69986E+22
       995    98998.0  9.60603E+18  5.88919E+22
       996    99198.4  9.90646E+18  6.08445E+22
       997    99398.8  1.02157E+19  6.28581E+22
       998    99599.2  1.05341E+19  6.49346E+22
       999    99799.6  1.08617E+19  6.70756E+22
      1000   100000.0  1.12160E+19  6.93954E+22
