**************INPUT DATA SUMMARY**************
%%%%%%%%%%%%%%%%%%%%%%%%%%%%%%%%%%%%%%%%%%%%%%%%%%%%%%%%%%%%%%%%%%%%%%%%%%%%%%

                                        John R. Barker
                DenSum-2011             University of Michigan
                                        Ann Arbor, MI 48109-2143
                Jan 2011                jrbarker@umich.edu
                                        (734) 763 6239

              http://aoss.engin.umich.edu/multiwell/

%%%%%%%%%%%%%%%%%%%%%%%%%%%%%%%%%%%%%%%%%%%%%%%%%%%%%%%%%%%%%%%%%%%%%%%%%%%%%%

        Suggested Literature Citation:

        a) MultiWell-2011   Software, Jan 2011, designed and
           maintained by J.R. Barker with contributors N.F. Ortiz,
           J.M. Preses, L.L. Lohr, A. Maranzana, P.J. Stimac, T. L.
           Nguyen, and T. J. Dhilip Kumar, University of Michigan,
           Ann Arbor, MI; http://aoss.engin.umich.edu/multiwell/

        b) J.R. Barker, Int. J. Chem. Kinetics, 33, 232-45 (2001)



%%%%%%%%%%%%%%%%%%%%%%%%%%%%%%%%%%%%%%%%%%%%%%%%%%%%%%%%%%%%%%%%%%%%%%%%%%%%%%


....................................................
          2011/03/02   12:40:07.587   (Local Time)
          year/mm/dd   hr:mi:second
                 CPU :        0.005 s (  0.000 hr)
....................................................


Degrees of Freedom

    1  Vibrator  Freq(0-1)= 3004.43  Freq(har)= 3004.43  Anh(cm-1)=    0.00  g = 2
    2  Vibrator  Freq(0-1)=  606.45  Freq(har)=  606.45  Anh(cm-1)=    0.00  g = 2
    3  Vibrator  Freq(0-1)= 3160.82  Freq(har)= 3160.82  Anh(cm-1)=    0.00  g = 4
    4  Vibrator  Freq(0-1)= 1402.00  Freq(har)= 1402.00  Anh(cm-1)=    0.00  g = 4
    5  Hind.Rot  Freq(har)=    9.77  Mom=   1.590  fold= 3  symm= 3  B= 10.6023 cm-1  Uo=    1.0 cm-1
    6  Quan.Rot  AmuAng^2 =    0.44  Symm =  1.   dim = 2  B = 37.9676 cm-1
    7  Quan.Rot  AmuAng^2 =    0.44  Symm =  1.   dim = 2  B = 37.9676 cm-1
    8  Quan.Rot  AmuAng^2 =    7.04  Symm =  1.   dim = 1  B =  2.3956 cm-1
**************INPUT DATA SUMMARY**************
 3parTS-906
ctst  3param eta CH3--CH3TS 906 K                 
       10.0       1500    85000.0       2000        9.8
       No.     (cm-1)   Density   Sum
         1        0.0  1.000E-01  1.000E+00
         2       10.0  2.667E-01  3.667E+00
         3       20.0  2.000E-01  5.667E+00
         4       30.0  1.333E-01  7.000E+00
         5       40.0  2.667E-01  9.667E+00
         6       50.0  2.667E-01  1.233E+01
         7       60.0  2.000E-01  1.433E+01
         8       70.0  1.333E-01  1.567E+01
         9       80.0  7.333E-01  2.300E+01
        10       90.0  1.667E+00  3.967E+01
        11      100.0  1.667E+00  5.633E+01
        12      110.0  9.333E-01  6.567E+01
        13      120.0  1.800E+00  8.367E+01
        14      130.0  1.867E+00  1.023E+02
        15      140.0  1.333E+00  1.157E+02
        16      150.0  8.667E-01  1.243E+02
        17      160.0  2.100E+00  1.453E+02
        18      170.0  3.000E+00  1.753E+02
        19      180.0  4.733E+00  2.227E+02
        20      190.0  2.467E+00  2.473E+02
        21      200.0  3.733E+00  2.847E+02
        22      210.0  4.133E+00  3.260E+02
        23      220.0  2.733E+00  3.533E+02
        24      230.0  2.867E+00  3.820E+02
        25      240.0  6.333E+00  4.453E+02
        26      250.0  4.067E+00  4.860E+02
        27      260.0  6.467E+00  5.507E+02
        28      270.0  6.867E+00  6.193E+02
        29      280.0  5.533E+00  6.747E+02
        30      290.0  5.667E+00  7.313E+02
        31      300.0  3.467E+00  7.660E+02
        32      310.0  6.667E+00  8.327E+02
        33      320.0  1.280E+01  9.607E+02
        34      330.0  1.433E+01  1.104E+03
        35      340.0  7.533E+00  1.179E+03
        36      350.0  1.553E+01  1.335E+03
        37      360.0  1.373E+01  1.472E+03
        38      370.0  1.133E+01  1.585E+03
        39      380.0  7.000E+00  1.655E+03
        40      390.0  1.160E+01  1.771E+03
        41      400.0  5.600E+00  1.827E+03
        42      410.0  1.960E+01  2.023E+03
        43      420.0  1.133E+01  2.137E+03
        44      430.0  9.933E+00  2.236E+03
        45      440.0  1.373E+01  2.373E+03
        46      450.0  9.533E+00  2.469E+03
        47      460.0  1.203E+01  2.589E+03
        48      470.0  2.687E+01  2.858E+03
        49      480.0  1.900E+01  3.048E+03
        50      490.0  1.453E+01  3.193E+03
        51      500.0  3.007E+01  3.494E+03
        52      510.0  1.867E+01  3.680E+03
        53      520.0  2.147E+01  3.895E+03
        54      530.0  1.080E+01  4.003E+03
        55      540.0  2.353E+01  4.238E+03
        56      550.0  2.207E+01  4.459E+03
        57      560.0  4.013E+01  4.860E+03
        58      570.0  1.960E+01  5.056E+03
        59      580.0  3.060E+01  5.362E+03
        60      590.0  3.467E+01  5.709E+03
        61      600.0  3.240E+01  6.033E+03
        62      610.0  1.767E+01  6.210E+03
        63      620.0  3.360E+01  6.546E+03
        64      630.0  1.960E+01  6.742E+03
        65      640.0  3.893E+01  7.131E+03
        66      650.0  3.553E+01  7.486E+03
        67      660.0  2.213E+01  7.708E+03
        68      670.0  3.280E+01  8.036E+03
        69      680.0  1.307E+01  8.166E+03
        70      690.0  3.893E+01  8.556E+03
        71      700.0  5.907E+01  9.146E+03
        72      710.0  4.507E+01  9.597E+03
        73      720.0  3.507E+01  9.948E+03
        74      730.0  6.487E+01  1.060E+04
        75      740.0  4.507E+01  1.105E+04
        76      750.0  5.687E+01  1.162E+04
        77      760.0  2.767E+01  1.189E+04
        78      770.0  4.907E+01  1.238E+04
        79      780.0  3.393E+01  1.272E+04
        80      790.0  7.547E+01  1.348E+04
        81      800.0  4.180E+01  1.389E+04
        82      810.0  5.280E+01  1.442E+04
        83      820.0  6.587E+01  1.508E+04
        84      830.0  4.653E+01  1.555E+04
        85      840.0  5.073E+01  1.605E+04
        86      850.0  8.887E+01  1.694E+04
        87      860.0  6.367E+01  1.758E+04
        88      870.0  7.107E+01  1.829E+04
        89      880.0  1.001E+02  1.929E+04
        90      890.0  5.600E+01  1.985E+04
        91      900.0  6.813E+01  2.053E+04
        92      910.0  2.747E+01  2.081E+04
        93      920.0  8.943E+01  2.170E+04
        94      930.0  8.780E+01  2.258E+04
        95      940.0  1.085E+02  2.367E+04
        96      950.0  7.747E+01  2.444E+04
        97      960.0  1.022E+02  2.546E+04
        98      970.0  9.693E+01  2.643E+04
        99      980.0  1.143E+02  2.757E+04
       100      990.0  6.647E+01  2.824E+04
       101     1000.0  1.155E+02  2.939E+04
       102     1010.0  8.367E+01  3.023E+04
       103     1020.0  1.379E+02  3.161E+04
       104     1030.0  1.263E+02  3.287E+04
       105     1040.0  1.089E+02  3.396E+04
       106     1050.0  1.208E+02  3.517E+04
       107     1060.0  6.067E+01  3.578E+04
       108     1070.0  1.097E+02  3.687E+04
       109     1080.0  1.433E+02  3.831E+04
       110     1090.0  1.447E+02  3.975E+04
       111     1100.0  1.171E+02  4.092E+04
       112     1110.0  1.661E+02  4.258E+04
       113     1120.0  1.094E+02  4.368E+04
       114     1130.0  1.413E+02  4.509E+04
       115     1140.0  6.573E+01  4.575E+04
       116     1150.0  1.674E+02  4.742E+04
       117     1160.0  1.233E+02  4.866E+04
       118     1170.0  1.697E+02  5.035E+04
       119     1180.0  1.548E+02  5.190E+04
       120     1190.0  1.421E+02  5.332E+04
       121     1200.0  1.625E+02  5.495E+04
       122     1210.0  1.480E+02  5.643E+04
       123     1220.0  1.509E+02  5.794E+04
       124     1230.0  2.084E+02  6.002E+04
       125     1240.0  1.707E+02  6.173E+04
       126     1250.0  1.941E+02  6.367E+04
       127     1260.0  2.318E+02  6.599E+04
       128     1270.0  1.834E+02  6.782E+04
       129     1280.0  2.171E+02  6.999E+04
       130     1290.0  9.107E+01  7.090E+04
       131     1300.0  2.019E+02  7.292E+04
       132     1310.0  2.199E+02  7.512E+04
       133     1320.0  2.681E+02  7.780E+04
       134     1330.0  2.103E+02  7.990E+04
       135     1340.0  2.513E+02  8.242E+04
       136     1350.0  2.000E+02  8.442E+04
       137     1360.0  2.308E+02  8.672E+04
       138     1370.0  1.770E+02  8.849E+04
       139     1380.0  3.247E+02  9.174E+04
       140     1390.0  2.085E+02  9.383E+04
       141     1400.0  2.915E+02  9.674E+04
       142     1410.0  3.189E+02  9.993E+04
       143     1420.0  2.350E+02  1.023E+05
       144     1430.0  2.834E+02  1.051E+05
       145     1440.0  1.826E+02  1.069E+05
       146     1450.0  2.599E+02  1.095E+05
       147     1460.0  2.944E+02  1.125E+05
       148     1470.0  3.049E+02  1.155E+05
       149     1480.0  2.566E+02  1.181E+05
       150     1490.0  3.499E+02  1.216E+05
       151     1500.0  2.903E+02  1.245E+05
       152     1510.0  3.190E+02  1.277E+05
       153     1520.0  1.988E+02  1.297E+05
       154     1530.0  3.782E+02  1.335E+05
       155     1540.0  3.236E+02  1.367E+05
       156     1550.0  3.770E+02  1.405E+05
       157     1560.0  4.238E+02  1.447E+05
       158     1570.0  3.462E+02  1.482E+05
       159     1580.0  3.122E+02  1.513E+05
       160     1590.0  3.273E+02  1.546E+05
       161     1600.0  3.673E+02  1.582E+05
       162     1610.0  4.933E+02  1.632E+05
       163     1620.0  4.203E+02  1.674E+05
       164     1630.0  4.507E+02  1.719E+05
       165     1640.0  5.018E+02  1.769E+05
       166     1650.0  3.933E+02  1.808E+05
       167     1660.0  5.269E+02  1.861E+05
       168     1670.0  2.687E+02  1.888E+05
       169     1680.0  4.780E+02  1.936E+05
       170     1690.0  4.629E+02  1.982E+05
       171     1700.0  5.571E+02  2.038E+05
       172     1710.0  4.951E+02  2.087E+05
       173     1720.0  5.450E+02  2.142E+05
       174     1730.0  4.941E+02  2.191E+05
       175     1740.0  4.295E+02  2.234E+05
       176     1750.0  4.509E+02  2.279E+05
       177     1760.0  6.297E+02  2.342E+05
       178     1770.0  5.349E+02  2.396E+05
       179     1780.0  5.078E+02  2.446E+05
       180     1790.0  6.820E+02  2.515E+05
       181     1800.0  4.925E+02  2.564E+05
       182     1810.0  5.449E+02  2.618E+05
       183     1820.0  4.315E+02  2.661E+05
       184     1830.0  6.319E+02  2.725E+05
       185     1840.0  6.773E+02  2.792E+05
       186     1850.0  6.307E+02  2.855E+05
       187     1860.0  6.801E+02  2.923E+05
       188     1870.0  7.490E+02  2.998E+05
       189     1880.0  6.552E+02  3.064E+05
       190     1890.0  7.220E+02  3.136E+05
       191     1900.0  5.931E+02  3.195E+05
       192     1910.0  7.943E+02  3.275E+05
       193     1920.0  7.455E+02  3.349E+05
       194     1930.0  7.996E+02  3.429E+05
       195     1940.0  8.793E+02  3.517E+05
       196     1950.0  7.561E+02  3.593E+05
       197     1960.0  8.262E+02  3.675E+05
       198     1970.0  5.839E+02  3.734E+05
       199     1980.0  8.246E+02  3.816E+05
       200     1990.0  1.011E+03  3.917E+05
       201     2000.0  9.442E+02  4.012E+05
       202     2010.0  8.349E+02  4.095E+05
       203     2020.0  1.014E+03  4.197E+05
       204     2030.0  7.492E+02  4.272E+05
       205     2040.0  8.921E+02  4.361E+05
       206     2050.0  7.450E+02  4.435E+05
       207     2060.0  9.905E+02  4.534E+05
       208     2070.0  9.149E+02  4.626E+05
       209     2080.0  9.735E+02  4.723E+05
       210     2090.0  1.096E+03  4.833E+05
       211     2100.0  1.082E+03  4.941E+05
       212     2110.0  1.035E+03  5.045E+05
       213     2120.0  8.948E+02  5.134E+05
       214     2130.0  1.024E+03  5.237E+05
       215     2140.0  1.151E+03  5.352E+05
       216     2150.0  1.153E+03  5.467E+05
       217     2160.0  9.905E+02  5.566E+05
       218     2170.0  1.305E+03  5.696E+05
       219     2180.0  1.077E+03  5.804E+05
       220     2190.0  1.151E+03  5.919E+05
       221     2200.0  8.735E+02  6.007E+05
       222     2210.0  1.335E+03  6.140E+05
       223     2220.0  1.415E+03  6.282E+05
       224     2230.0  1.374E+03  6.419E+05
       225     2240.0  1.406E+03  6.560E+05
       226     2250.0  1.436E+03  6.703E+05
       227     2260.0  1.181E+03  6.821E+05
       228     2270.0  1.335E+03  6.955E+05
       229     2280.0  1.343E+03  7.089E+05
       230     2290.0  1.535E+03  7.243E+05
       231     2300.0  1.400E+03  7.383E+05
       232     2310.0  1.376E+03  7.520E+05
       233     2320.0  1.655E+03  7.686E+05
       234     2330.0  1.448E+03  7.831E+05
       235     2340.0  1.719E+03  8.002E+05
       236     2350.0  1.159E+03  8.118E+05
       237     2360.0  1.672E+03  8.286E+05
       238     2370.0  1.748E+03  8.460E+05
       239     2380.0  1.909E+03  8.651E+05
       240     2390.0  1.555E+03  8.807E+05
       241     2400.0  1.945E+03  9.001E+05
       242     2410.0  1.573E+03  9.159E+05
       243     2420.0  1.640E+03  9.323E+05
       244     2430.0  1.660E+03  9.489E+05
       245     2440.0  1.997E+03  9.688E+05
       246     2450.0  1.944E+03  9.883E+05
       247     2460.0  1.804E+03  1.006E+06
       248     2470.0  2.136E+03  1.028E+06
       249     2480.0  2.040E+03  1.048E+06
       250     2490.0  1.969E+03  1.068E+06
       251     2500.0  1.741E+03  1.085E+06
       252     2510.0  2.126E+03  1.106E+06
       253     2520.0  2.230E+03  1.129E+06
       254     2530.0  2.226E+03  1.151E+06
       255     2540.0  1.918E+03  1.170E+06
       256     2550.0  2.464E+03  1.195E+06
       257     2560.0  1.988E+03  1.215E+06
       258     2570.0  2.316E+03  1.238E+06
       259     2580.0  1.793E+03  1.256E+06
       260     2590.0  2.546E+03  1.281E+06
       261     2600.0  2.408E+03  1.305E+06
       262     2610.0  2.533E+03  1.331E+06
       263     2620.0  2.528E+03  1.356E+06
       264     2630.0  2.549E+03  1.381E+06
       265     2640.0  2.348E+03  1.405E+06
       266     2650.0  2.276E+03  1.428E+06
       267     2660.0  2.581E+03  1.453E+06
       268     2670.0  2.738E+03  1.481E+06
       269     2680.0  2.759E+03  1.508E+06
       270     2690.0  2.367E+03  1.532E+06
       271     2700.0  2.958E+03  1.562E+06
       272     2710.0  2.685E+03  1.589E+06
       273     2720.0  3.009E+03  1.619E+06
       274     2730.0  2.368E+03  1.642E+06
       275     2740.0  3.106E+03  1.673E+06
       276     2750.0  2.943E+03  1.703E+06
       277     2760.0  3.220E+03  1.735E+06
       278     2770.0  2.920E+03  1.764E+06
       279     2780.0  3.486E+03  1.799E+06
       280     2790.0  2.834E+03  1.827E+06
       281     2800.0  3.029E+03  1.858E+06
       282     2810.0  3.065E+03  1.888E+06
       283     2820.0  3.562E+03  1.924E+06
       284     2830.0  3.440E+03  1.958E+06
       285     2840.0  3.112E+03  1.989E+06
       286     2850.0  3.647E+03  2.026E+06
       287     2860.0  3.406E+03  2.060E+06
       288     2870.0  3.506E+03  2.095E+06
       289     2880.0  2.899E+03  2.124E+06
       290     2890.0  3.936E+03  2.163E+06
       291     2900.0  3.913E+03  2.203E+06
       292     2910.0  3.896E+03  2.242E+06
       293     2920.0  3.485E+03  2.276E+06
       294     2930.0  4.227E+03  2.319E+06
       295     2940.0  3.563E+03  2.354E+06
       296     2950.0  4.026E+03  2.395E+06
       297     2960.0  3.699E+03  2.432E+06
       298     2970.0  4.422E+03  2.476E+06
       299     2980.0  3.924E+03  2.515E+06
       300     2990.0  4.351E+03  2.558E+06
       301     3000.0  4.546E+03  2.604E+06
       302     3010.0  4.707E+03  2.651E+06
       303     3020.0  4.377E+03  2.695E+06
       304     3030.0  4.072E+03  2.736E+06
       305     3040.0  4.718E+03  2.783E+06
       306     3050.0  4.712E+03  2.830E+06
       307     3060.0  5.168E+03  2.881E+06
       308     3070.0  4.323E+03  2.925E+06
       309     3080.0  5.122E+03  2.976E+06
       310     3090.0  4.716E+03  3.023E+06
       311     3100.0  5.153E+03  3.075E+06
       312     3110.0  4.485E+03  3.119E+06
       313     3120.0  5.455E+03  3.174E+06
       314     3130.0  5.389E+03  3.228E+06
       315     3140.0  5.134E+03  3.279E+06
       316     3150.0  5.174E+03  3.331E+06
       317     3160.0  5.695E+03  3.388E+06
       318     3170.0  5.170E+03  3.440E+06
       319     3180.0  4.882E+03  3.488E+06
       320     3190.0  5.550E+03  3.544E+06
       321     3200.0  5.946E+03  3.603E+06
       322     3210.0  5.562E+03  3.659E+06
       323     3220.0  5.308E+03  3.712E+06
       324     3230.0  6.376E+03  3.776E+06
       325     3240.0  5.986E+03  3.836E+06
       326     3250.0  5.986E+03  3.896E+06
       327     3260.0  5.589E+03  3.951E+06
       328     3270.0  6.657E+03  4.018E+06
       329     3280.0  6.384E+03  4.082E+06
       330     3290.0  6.729E+03  4.149E+06
       331     3300.0  6.271E+03  4.212E+06
       332     3310.0  7.063E+03  4.283E+06
       333     3320.0  6.400E+03  4.347E+06
       334     3330.0  6.708E+03  4.414E+06
       335     3340.0  6.718E+03  4.481E+06
       336     3350.0  7.375E+03  4.555E+06
       337     3360.0  7.188E+03  4.626E+06
       338     3370.0  6.745E+03  4.694E+06
       339     3380.0  7.612E+03  4.770E+06
       340     3390.0  7.942E+03  4.849E+06
       341     3400.0  7.452E+03  4.924E+06
       342     3410.0  6.758E+03  4.992E+06
       343     3420.0  8.100E+03  5.073E+06
       344     3430.0  7.729E+03  5.150E+06
       345     3440.0  7.953E+03  5.229E+06
       346     3450.0  7.359E+03  5.303E+06
       347     3460.0  8.430E+03  5.387E+06
       348     3470.0  7.830E+03  5.466E+06
       349     3480.0  8.260E+03  5.548E+06
       350     3490.0  8.168E+03  5.630E+06
       351     3500.0  9.206E+03  5.722E+06
       352     3510.0  8.855E+03  5.810E+06
       353     3520.0  8.495E+03  5.895E+06
       354     3530.0  8.962E+03  5.985E+06
       355     3540.0  9.236E+03  6.077E+06
       356     3550.0  8.971E+03  6.167E+06
       357     3560.0  8.141E+03  6.248E+06
       358     3570.0  9.396E+03  6.342E+06
       359     3580.0  9.995E+03  6.442E+06
       360     3590.0  9.673E+03  6.539E+06
       361     3600.0  8.761E+03  6.627E+06
       362     3610.0  1.097E+04  6.736E+06
       363     3620.0  1.030E+04  6.839E+06
       364     3630.0  1.022E+04  6.942E+06
       365     3640.0  9.857E+03  7.040E+06
       366     3650.0  1.104E+04  7.151E+06
       367     3660.0  1.010E+04  7.252E+06
       368     3670.0  1.106E+04  7.362E+06
       369     3680.0  1.087E+04  7.471E+06
       370     3690.0  1.167E+04  7.588E+06
       371     3700.0  1.065E+04  7.694E+06
       372     3710.0  1.063E+04  7.800E+06
       373     3720.0  1.160E+04  7.916E+06
       374     3730.0  1.178E+04  8.034E+06
       375     3740.0  1.233E+04  8.158E+06
       376     3750.0  1.088E+04  8.266E+06
       377     3760.0  1.255E+04  8.392E+06
       378     3770.0  1.226E+04  8.514E+06
       379     3780.0  1.302E+04  8.645E+06
       380     3790.0  1.105E+04  8.755E+06
       381     3800.0  1.333E+04  8.889E+06
       382     3810.0  1.277E+04  9.016E+06
       383     3820.0  1.250E+04  9.141E+06
       384     3830.0  1.253E+04  9.267E+06
       385     3840.0  1.424E+04  9.409E+06
       386     3850.0  1.353E+04  9.544E+06
       387     3860.0  1.322E+04  9.676E+06
       388     3870.0  1.367E+04  9.813E+06
       389     3880.0  1.507E+04  9.964E+06
       390     3890.0  1.440E+04  1.011E+07
       391     3900.0  1.374E+04  1.025E+07
       392     3910.0  1.508E+04  1.040E+07
       393     3920.0  1.527E+04  1.055E+07
       394     3930.0  1.502E+04  1.070E+07
       395     3940.0  1.368E+04  1.084E+07
       396     3950.0  1.615E+04  1.100E+07
       397     3960.0  1.537E+04  1.115E+07
       398     3970.0  1.615E+04  1.131E+07
       399     3980.0  1.438E+04  1.146E+07
       400     3990.0  1.739E+04  1.163E+07
       401     4000.0  1.621E+04  1.179E+07
       402     4010.0  1.661E+04  1.196E+07
       403     4020.0  1.589E+04  1.212E+07
       404     4030.0  1.771E+04  1.229E+07
       405     4040.0  1.689E+04  1.246E+07
       406     4050.0  1.642E+04  1.263E+07
       407     4060.0  1.764E+04  1.280E+07
       408     4070.0  1.814E+04  1.299E+07
       409     4080.0  1.764E+04  1.316E+07
       410     4090.0  1.651E+04  1.333E+07
       411     4100.0  1.910E+04  1.352E+07
       412     4110.0  1.873E+04  1.370E+07
       413     4120.0  1.916E+04  1.390E+07
       414     4130.0  1.790E+04  1.408E+07
       415     4140.0  2.017E+04  1.428E+07
       416     4150.0  1.903E+04  1.447E+07
       417     4160.0  2.058E+04  1.467E+07
       418     4170.0  1.850E+04  1.486E+07
       419     4180.0  2.132E+04  1.507E+07
       420     4190.0  2.009E+04  1.527E+07
       421     4200.0  2.057E+04  1.548E+07
       422     4210.0  2.032E+04  1.568E+07
       423     4220.0  2.274E+04  1.591E+07
       424     4230.0  2.171E+04  1.613E+07
       425     4240.0  2.024E+04  1.633E+07
       426     4250.0  2.164E+04  1.654E+07
       427     4260.0  2.304E+04  1.678E+07
       428     4270.0  2.304E+04  1.701E+07
       429     4280.0  2.105E+04  1.722E+07
       430     4290.0  2.439E+04  1.746E+07
       431     4300.0  2.416E+04  1.770E+07
       432     4310.0  2.354E+04  1.794E+07
       433     4320.0  2.210E+04  1.816E+07
       434     4330.0  2.557E+04  1.841E+07
       435     4340.0  2.381E+04  1.865E+07
       436     4350.0  2.505E+04  1.890E+07
       437     4360.0  2.418E+04  1.914E+07
       438     4370.0  2.696E+04  1.941E+07
       439     4380.0  2.491E+04  1.966E+07
       440     4390.0  2.638E+04  1.993E+07
       441     4400.0  2.604E+04  2.019E+07
       442     4410.0  2.818E+04  2.047E+07
       443     4420.0  2.694E+04  2.074E+07
       444     4430.0  2.604E+04  2.100E+07
       445     4440.0  2.831E+04  2.128E+07
       446     4450.0  2.841E+04  2.157E+07
       447     4460.0  2.912E+04  2.186E+07
       448     4470.0  2.653E+04  2.212E+07
       449     4480.0  2.952E+04  2.242E+07
       450     4490.0  3.001E+04  2.272E+07
       451     4500.0  3.032E+04  2.302E+07
       452     4510.0  2.852E+04  2.331E+07
       453     4520.0  3.198E+04  2.363E+07
       454     4530.0  3.078E+04  2.393E+07
       455     4540.0  3.087E+04  2.424E+07
       456     4550.0  3.010E+04  2.454E+07
       457     4560.0  3.306E+04  2.487E+07
       458     4570.0  3.183E+04  2.519E+07
       459     4580.0  3.099E+04  2.550E+07
       460     4590.0  3.208E+04  2.582E+07
       461     4600.0  3.464E+04  2.617E+07
       462     4610.0  3.301E+04  2.650E+07
       463     4620.0  3.203E+04  2.682E+07
       464     4630.0  3.438E+04  2.716E+07
       465     4640.0  3.550E+04  2.752E+07
       466     4650.0  3.520E+04  2.787E+07
       467     4660.0  3.338E+04  2.820E+07
       468     4670.0  3.749E+04  2.858E+07
       469     4680.0  3.656E+04  2.894E+07
       470     4690.0  3.659E+04  2.931E+07
       471     4700.0  3.504E+04  2.966E+07
       472     4710.0  3.950E+04  3.006E+07
       473     4720.0  3.748E+04  3.043E+07
       474     4730.0  3.780E+04  3.081E+07
       475     4740.0  3.801E+04  3.119E+07
       476     4750.0  4.121E+04  3.160E+07
       477     4760.0  3.901E+04  3.199E+07
       478     4770.0  3.979E+04  3.239E+07
       479     4780.0  4.026E+04  3.279E+07
       480     4790.0  4.340E+04  3.323E+07
       481     4800.0  4.160E+04  3.364E+07
       482     4810.0  3.913E+04  3.403E+07
       483     4820.0  4.433E+04  3.448E+07
       484     4830.0  4.295E+04  3.491E+07
       485     4840.0  4.368E+04  3.534E+07
       486     4850.0  4.059E+04  3.575E+07
       487     4860.0  4.519E+04  3.620E+07
       488     4870.0  4.490E+04  3.665E+07
       489     4880.0  4.607E+04  3.711E+07
       490     4890.0  4.513E+04  3.756E+07
       491     4900.0  4.904E+04  3.805E+07
       492     4910.0  4.688E+04  3.852E+07
       493     4920.0  4.614E+04  3.898E+07
       494     4930.0  4.709E+04  3.945E+07
       495     4940.0  4.978E+04  3.995E+07
       496     4950.0  4.915E+04  4.044E+07
       497     4960.0  4.703E+04  4.091E+07
       498     4970.0  4.951E+04  4.141E+07
       499     4980.0  5.287E+04  4.194E+07
       500     4990.0  5.188E+04  4.245E+07
       501     5000.0  4.920E+04  4.295E+07
       502     5010.0  5.420E+04  4.349E+07
       503     5020.0  5.488E+04  4.404E+07
       504     5030.0  5.401E+04  4.458E+07
       505     5040.0  5.245E+04  4.510E+07
       506     5050.0  5.771E+04  4.568E+07
       507     5060.0  5.454E+04  4.622E+07
       508     5070.0  5.684E+04  4.679E+07
       509     5080.0  5.471E+04  4.734E+07
       510     5090.0  6.105E+04  4.795E+07
       511     5100.0  5.776E+04  4.853E+07
       512     5110.0  5.681E+04  4.910E+07
       513     5120.0  5.979E+04  4.969E+07
       514     5130.0  6.084E+04  5.030E+07
       515     5140.0  6.118E+04  5.091E+07
       516     5150.0  5.917E+04  5.151E+07
       517     5160.0  6.256E+04  5.213E+07
       518     5170.0  6.312E+04  5.276E+07
       519     5180.0  6.568E+04  5.342E+07
       520     5190.0  5.922E+04  5.401E+07
       521     5200.0  6.600E+04  5.467E+07
       522     5210.0  6.564E+04  5.533E+07
       523     5220.0  6.503E+04  5.598E+07
       524     5230.0  6.298E+04  5.661E+07
       525     5240.0  6.951E+04  5.730E+07
       526     5250.0  6.926E+04  5.800E+07
       527     5260.0  6.774E+04  5.867E+07
       528     5270.0  6.804E+04  5.935E+07
       529     5280.0  7.400E+04  6.009E+07
       530     5290.0  7.150E+04  6.081E+07
       531     5300.0  6.902E+04  6.150E+07
       532     5310.0  7.257E+04  6.223E+07
       533     5320.0  7.530E+04  6.298E+07
       534     5330.0  7.398E+04  6.372E+07
       535     5340.0  7.208E+04  6.444E+07
       536     5350.0  7.659E+04  6.520E+07
       537     5360.0  7.677E+04  6.597E+07
       538     5370.0  7.877E+04  6.676E+07
       539     5380.0  7.431E+04  6.750E+07
       540     5390.0  8.157E+04  6.832E+07
       541     5400.0  8.154E+04  6.913E+07
       542     5410.0  8.072E+04  6.994E+07
       543     5420.0  7.687E+04  7.071E+07
       544     5430.0  8.551E+04  7.157E+07
       545     5440.0  8.321E+04  7.240E+07
       546     5450.0  8.146E+04  7.321E+07
       547     5460.0  8.249E+04  7.404E+07
       548     5470.0  8.862E+04  7.492E+07
       549     5480.0  8.651E+04  7.579E+07
       550     5490.0  8.305E+04  7.662E+07
       551     5500.0  9.070E+04  7.753E+07
       552     5510.0  9.018E+04  7.843E+07
       553     5520.0  8.943E+04  7.932E+07
       554     5530.0  8.798E+04  8.020E+07
       555     5540.0  9.448E+04  8.115E+07
       556     5550.0  9.246E+04  8.207E+07
       557     5560.0  9.706E+04  8.304E+07
       558     5570.0  9.139E+04  8.396E+07
       559     5580.0  9.711E+04  8.493E+07
       560     5590.0  9.723E+04  8.590E+07
       561     5600.0  9.854E+04  8.688E+07
       562     5610.0  9.583E+04  8.784E+07
       563     5620.0  1.041E+05  8.888E+07
       564     5630.0  1.037E+05  8.992E+07
       565     5640.0  9.927E+04  9.091E+07
       566     5650.0  1.006E+05  9.192E+07
       567     5660.0  1.084E+05  9.300E+07
       568     5670.0  1.073E+05  9.408E+07
       569     5680.0  1.022E+05  9.510E+07
       570     5690.0  1.086E+05  9.619E+07
       571     5700.0  1.134E+05  9.732E+07
       572     5710.0  1.093E+05  9.841E+07
       573     5720.0  1.069E+05  9.948E+07
       574     5730.0  1.153E+05  1.006E+08
       575     5740.0  1.112E+05  1.017E+08
       576     5750.0  1.153E+05  1.029E+08
       577     5760.0  1.133E+05  1.040E+08
       578     5770.0  1.207E+05  1.052E+08
       579     5780.0  1.182E+05  1.064E+08
       580     5790.0  1.202E+05  1.076E+08
       581     5800.0  1.171E+05  1.088E+08
       582     5810.0  1.251E+05  1.100E+08
       583     5820.0  1.237E+05  1.113E+08
       584     5830.0  1.214E+05  1.125E+08
       585     5840.0  1.226E+05  1.137E+08
       586     5850.0  1.297E+05  1.150E+08
       587     5860.0  1.300E+05  1.163E+08
       588     5870.0  1.234E+05  1.176E+08
       589     5880.0  1.307E+05  1.189E+08
       590     5890.0  1.359E+05  1.202E+08
       591     5900.0  1.336E+05  1.216E+08
       592     5910.0  1.298E+05  1.229E+08
       593     5920.0  1.401E+05  1.243E+08
       594     5930.0  1.383E+05  1.256E+08
       595     5940.0  1.380E+05  1.270E+08
       596     5950.0  1.362E+05  1.284E+08
       597     5960.0  1.434E+05  1.298E+08
       598     5970.0  1.416E+05  1.312E+08
       599     5980.0  1.428E+05  1.327E+08
       600     5990.0  1.409E+05  1.341E+08
       601     6000.0  1.515E+05  1.356E+08
       602     6010.0  1.492E+05  1.371E+08
       603     6020.0  1.449E+05  1.385E+08
       604     6030.0  1.477E+05  1.400E+08
       605     6040.0  1.546E+05  1.415E+08
       606     6050.0  1.561E+05  1.431E+08
       607     6060.0  1.497E+05  1.446E+08
       608     6070.0  1.582E+05  1.462E+08
       609     6080.0  1.628E+05  1.478E+08
       610     6090.0  1.586E+05  1.494E+08
       611     6100.0  1.546E+05  1.509E+08
       612     6110.0  1.680E+05  1.526E+08
       613     6120.0  1.633E+05  1.543E+08
       614     6130.0  1.642E+05  1.559E+08
       615     6140.0  1.637E+05  1.575E+08
       616     6150.0  1.767E+05  1.593E+08
       617     6160.0  1.709E+05  1.610E+08
       618     6170.0  1.746E+05  1.628E+08
       619     6180.0  1.718E+05  1.645E+08
       620     6190.0  1.808E+05  1.663E+08
       621     6200.0  1.798E+05  1.681E+08
       622     6210.0  1.737E+05  1.698E+08
       623     6220.0  1.829E+05  1.717E+08
       624     6230.0  1.867E+05  1.735E+08
       625     6240.0  1.881E+05  1.754E+08
       626     6250.0  1.784E+05  1.772E+08
       627     6260.0  1.894E+05  1.791E+08
       628     6270.0  1.937E+05  1.810E+08
       629     6280.0  1.950E+05  1.830E+08
       630     6290.0  1.904E+05  1.849E+08
       631     6300.0  2.030E+05  1.869E+08
       632     6310.0  2.002E+05  1.889E+08
       633     6320.0  1.959E+05  1.909E+08
       634     6330.0  1.996E+05  1.929E+08
       635     6340.0  2.069E+05  1.949E+08
       636     6350.0  2.060E+05  1.970E+08
       637     6360.0  2.044E+05  1.990E+08
       638     6370.0  2.054E+05  2.011E+08
       639     6380.0  2.181E+05  2.033E+08
       640     6390.0  2.187E+05  2.055E+08
       641     6400.0  2.107E+05  2.076E+08
       642     6410.0  2.180E+05  2.097E+08
       643     6420.0  2.245E+05  2.120E+08
       644     6430.0  2.260E+05  2.142E+08
       645     6440.0  2.195E+05  2.164E+08
       646     6450.0  2.312E+05  2.188E+08
       647     6460.0  2.306E+05  2.211E+08
       648     6470.0  2.325E+05  2.234E+08
       649     6480.0  2.249E+05  2.256E+08
       650     6490.0  2.448E+05  2.281E+08
       651     6500.0  2.407E+05  2.305E+08
       652     6510.0  2.350E+05  2.328E+08
       653     6520.0  2.403E+05  2.352E+08
       654     6530.0  2.492E+05  2.377E+08
       655     6540.0  2.490E+05  2.402E+08
       656     6550.0  2.476E+05  2.427E+08
       657     6560.0  2.484E+05  2.452E+08
       658     6570.0  2.538E+05  2.477E+08
       659     6580.0  2.621E+05  2.503E+08
       660     6590.0  2.501E+05  2.528E+08
       661     6600.0  2.607E+05  2.554E+08
       662     6610.0  2.686E+05  2.581E+08
       663     6620.0  2.656E+05  2.608E+08
       664     6630.0  2.561E+05  2.634E+08
       665     6640.0  2.714E+05  2.661E+08
       666     6650.0  2.784E+05  2.688E+08
       667     6660.0  2.754E+05  2.716E+08
       668     6670.0  2.715E+05  2.743E+08
       669     6680.0  2.903E+05  2.772E+08
       670     6690.0  2.891E+05  2.801E+08
       671     6700.0  2.769E+05  2.829E+08
       672     6710.0  2.847E+05  2.857E+08
       673     6720.0  2.961E+05  2.887E+08
       674     6730.0  2.918E+05  2.916E+08
       675     6740.0  2.929E+05  2.945E+08
       676     6750.0  2.984E+05  2.975E+08
       677     6760.0  3.067E+05  3.006E+08
       678     6770.0  3.118E+05  3.037E+08
       679     6780.0  3.030E+05  3.067E+08
       680     6790.0  3.109E+05  3.098E+08
       681     6800.0  3.200E+05  3.130E+08
       682     6810.0  3.187E+05  3.162E+08
       683     6820.0  3.065E+05  3.193E+08
       684     6830.0  3.290E+05  3.226E+08
       685     6840.0  3.317E+05  3.259E+08
       686     6850.0  3.263E+05  3.292E+08
       687     6860.0  3.206E+05  3.324E+08
       688     6870.0  3.423E+05  3.358E+08
       689     6880.0  3.413E+05  3.392E+08
       690     6890.0  3.320E+05  3.425E+08
       691     6900.0  3.438E+05  3.460E+08
       692     6910.0  3.536E+05  3.495E+08
       693     6920.0  3.484E+05  3.530E+08
       694     6930.0  3.472E+05  3.565E+08
       695     6940.0  3.601E+05  3.601E+08
       696     6950.0  3.598E+05  3.637E+08
       697     6960.0  3.698E+05  3.674E+08
       698     6970.0  3.605E+05  3.710E+08
       699     6980.0  3.667E+05  3.746E+08
       700     6990.0  3.776E+05  3.784E+08
       701     7000.0  3.811E+05  3.822E+08
       702     7010.0  3.721E+05  3.859E+08
       703     7020.0  3.875E+05  3.898E+08
       704     7030.0  3.966E+05  3.938E+08
       705     7040.0  3.912E+05  3.977E+08
       706     7050.0  3.832E+05  4.015E+08
       707     7060.0  4.104E+05  4.056E+08
       708     7070.0  4.101E+05  4.097E+08
       709     7080.0  3.954E+05  4.137E+08
       710     7090.0  4.030E+05  4.177E+08
       711     7100.0  4.262E+05  4.220E+08
       712     7110.0  4.158E+05  4.261E+08
       713     7120.0  4.120E+05  4.302E+08
       714     7130.0  4.267E+05  4.345E+08
       715     7140.0  4.277E+05  4.388E+08
       716     7150.0  4.339E+05  4.431E+08
       717     7160.0  4.328E+05  4.475E+08
       718     7170.0  4.410E+05  4.519E+08
       719     7180.0  4.439E+05  4.563E+08
       720     7190.0  4.510E+05  4.608E+08
       721     7200.0  4.412E+05  4.652E+08
       722     7210.0  4.608E+05  4.698E+08
       723     7220.0  4.670E+05  4.745E+08
       724     7230.0  4.612E+05  4.791E+08
       725     7240.0  4.474E+05  4.836E+08
       726     7250.0  4.743E+05  4.883E+08
       727     7260.0  4.842E+05  4.932E+08
       728     7270.0  4.692E+05  4.979E+08
       729     7280.0  4.767E+05  5.026E+08
       730     7290.0  5.058E+05  5.077E+08
       731     7300.0  4.945E+05  5.126E+08
       732     7310.0  4.815E+05  5.175E+08
       733     7320.0  5.070E+05  5.225E+08
       734     7330.0  5.089E+05  5.276E+08
       735     7340.0  5.081E+05  5.327E+08
       736     7350.0  5.050E+05  5.377E+08
       737     7360.0  5.232E+05  5.430E+08
       738     7370.0  5.250E+05  5.482E+08
       739     7380.0  5.322E+05  5.536E+08
       740     7390.0  5.219E+05  5.588E+08
       741     7400.0  5.402E+05  5.642E+08
       742     7410.0  5.476E+05  5.696E+08
       743     7420.0  5.408E+05  5.751E+08
       744     7430.0  5.370E+05  5.804E+08
       745     7440.0  5.631E+05  5.861E+08
       746     7450.0  5.734E+05  5.918E+08
       747     7460.0  5.560E+05  5.974E+08
       748     7470.0  5.617E+05  6.030E+08
       749     7480.0  5.899E+05  6.089E+08
       750     7490.0  5.797E+05  6.147E+08
       751     7500.0  5.670E+05  6.203E+08
       752     7510.0  5.952E+05  6.263E+08
       753     7520.0  6.004E+05  6.323E+08
       754     7530.0  5.958E+05  6.382E+08
       755     7540.0  5.965E+05  6.442E+08
       756     7550.0  6.271E+05  6.505E+08
       757     7560.0  6.186E+05  6.567E+08
       758     7570.0  6.290E+05  6.630E+08
       759     7580.0  6.186E+05  6.691E+08
       760     7590.0  6.388E+05  6.755E+08
       761     7600.0  6.483E+05  6.820E+08
       762     7610.0  6.375E+05  6.884E+08
       763     7620.0  6.435E+05  6.948E+08
       764     7630.0  6.597E+05  7.014E+08
       765     7640.0  6.764E+05  7.082E+08
       766     7650.0  6.561E+05  7.147E+08
       767     7660.0  6.651E+05  7.214E+08
       768     7670.0  6.940E+05  7.283E+08
       769     7680.0  6.956E+05  7.353E+08
       770     7690.0  6.739E+05  7.420E+08
       771     7700.0  7.044E+05  7.491E+08
       772     7710.0  7.134E+05  7.562E+08
       773     7720.0  6.988E+05  7.632E+08
       774     7730.0  7.069E+05  7.703E+08
       775     7740.0  7.273E+05  7.775E+08
       776     7750.0  7.318E+05  7.849E+08
       777     7760.0  7.283E+05  7.921E+08
       778     7770.0  7.265E+05  7.994E+08
       779     7780.0  7.508E+05  8.069E+08
       780     7790.0  7.617E+05  8.145E+08
       781     7800.0  7.546E+05  8.221E+08
       782     7810.0  7.538E+05  8.296E+08
       783     7820.0  7.824E+05  8.374E+08
       784     7830.0  7.933E+05  8.454E+08
       785     7840.0  7.753E+05  8.531E+08
       786     7850.0  7.803E+05  8.609E+08
       787     7860.0  8.035E+05  8.690E+08
       788     7870.0  8.105E+05  8.771E+08
       789     7880.0  7.901E+05  8.850E+08
       790     7890.0  8.307E+05  8.933E+08
       791     7900.0  8.451E+05  9.017E+08
       792     7910.0  8.203E+05  9.099E+08
       793     7920.0  8.208E+05  9.181E+08
       794     7930.0  8.566E+05  9.267E+08
       795     7940.0  8.574E+05  9.353E+08
       796     7950.0  8.619E+05  9.439E+08
       797     7960.0  8.522E+05  9.524E+08
       798     7970.0  8.735E+05  9.612E+08
       799     7980.0  8.978E+05  9.701E+08
       800     7990.0  8.799E+05  9.789E+08
       801     8000.0  8.871E+05  9.878E+08
       802     8010.0  9.099E+05  9.969E+08
       803     8020.0  9.167E+05  1.006E+09
       804     8030.0  8.962E+05  1.015E+09
       805     8040.0  9.158E+05  1.024E+09
       806     8050.0  9.559E+05  1.034E+09
       807     8060.0  9.524E+05  1.043E+09
       808     8070.0  9.293E+05  1.053E+09
       809     8080.0  9.629E+05  1.062E+09
       810     8090.0  9.882E+05  1.072E+09
       811     8100.0  9.555E+05  1.082E+09
       812     8110.0  9.611E+05  1.091E+09
       813     8120.0  9.995E+05  1.101E+09
       814     8130.0  9.961E+05  1.111E+09
       815     8140.0  1.001E+06  1.121E+09
       816     8150.0  1.009E+06  1.131E+09
       817     8160.0  1.037E+06  1.142E+09
       818     8170.0  1.046E+06  1.152E+09
       819     8180.0  1.040E+06  1.163E+09
       820     8190.0  1.036E+06  1.173E+09
       821     8200.0  1.075E+06  1.184E+09
       822     8210.0  1.080E+06  1.194E+09
       823     8220.0  1.055E+06  1.205E+09
       824     8230.0  1.082E+06  1.216E+09
       825     8240.0  1.110E+06  1.227E+09
       826     8250.0  1.116E+06  1.238E+09
       827     8260.0  1.084E+06  1.249E+09
       828     8270.0  1.130E+06  1.260E+09
       829     8280.0  1.154E+06  1.272E+09
       830     8290.0  1.125E+06  1.283E+09
       831     8300.0  1.129E+06  1.294E+09
       832     8310.0  1.176E+06  1.306E+09
       833     8320.0  1.169E+06  1.318E+09
       834     8330.0  1.165E+06  1.329E+09
       835     8340.0  1.190E+06  1.341E+09
       836     8350.0  1.201E+06  1.353E+09
       837     8360.0  1.219E+06  1.365E+09
       838     8370.0  1.211E+06  1.378E+09
       839     8380.0  1.207E+06  1.390E+09
       840     8390.0  1.240E+06  1.402E+09
       841     8400.0  1.259E+06  1.415E+09
       842     8410.0  1.247E+06  1.427E+09
       843     8420.0  1.260E+06  1.440E+09
       844     8430.0  1.305E+06  1.453E+09
       845     8440.0  1.307E+06  1.466E+09
       846     8450.0  1.265E+06  1.478E+09
       847     8460.0  1.314E+06  1.492E+09
       848     8470.0  1.345E+06  1.505E+09
       849     8480.0  1.315E+06  1.518E+09
       850     8490.0  1.311E+06  1.531E+09
       851     8500.0  1.385E+06  1.545E+09
       852     8510.0  1.371E+06  1.559E+09
       853     8520.0  1.354E+06  1.572E+09
       854     8530.0  1.373E+06  1.586E+09
       855     8540.0  1.404E+06  1.600E+09
       856     8550.0  1.410E+06  1.614E+09
       857     8560.0  1.421E+06  1.629E+09
       858     8570.0  1.420E+06  1.643E+09
       859     8580.0  1.442E+06  1.657E+09
       860     8590.0  1.466E+06  1.672E+09
       861     8600.0  1.450E+06  1.686E+09
       862     8610.0  1.470E+06  1.701E+09
       863     8620.0  1.504E+06  1.716E+09
       864     8630.0  1.512E+06  1.731E+09
       865     8640.0  1.457E+06  1.746E+09
       866     8650.0  1.515E+06  1.761E+09
       867     8660.0  1.573E+06  1.777E+09
       868     8670.0  1.539E+06  1.792E+09
       869     8680.0  1.522E+06  1.807E+09
       870     8690.0  1.605E+06  1.823E+09
       871     8700.0  1.602E+06  1.839E+09
       872     8710.0  1.560E+06  1.855E+09
       873     8720.0  1.608E+06  1.871E+09
       874     8730.0  1.639E+06  1.887E+09
       875     8740.0  1.630E+06  1.904E+09
       876     8750.0  1.630E+06  1.920E+09
       877     8760.0  1.669E+06  1.937E+09
       878     8770.0  1.683E+06  1.953E+09
       879     8780.0  1.704E+06  1.970E+09
       880     8790.0  1.690E+06  1.987E+09
       881     8800.0  1.702E+06  2.004E+09
       882     8810.0  1.746E+06  2.022E+09
       883     8820.0  1.751E+06  2.039E+09
       884     8830.0  1.727E+06  2.057E+09
       885     8840.0  1.765E+06  2.074E+09
       886     8850.0  1.821E+06  2.093E+09
       887     8860.0  1.799E+06  2.111E+09
       888     8870.0  1.767E+06  2.128E+09
       889     8880.0  1.863E+06  2.147E+09
       890     8890.0  1.857E+06  2.165E+09
       891     8900.0  1.807E+06  2.183E+09
       892     8910.0  1.857E+06  2.202E+09
       893     8920.0  1.909E+06  2.221E+09
       894     8930.0  1.892E+06  2.240E+09
       895     8940.0  1.897E+06  2.259E+09
       896     8950.0  1.952E+06  2.279E+09
       897     8960.0  1.956E+06  2.298E+09
       898     8970.0  1.966E+06  2.318E+09
       899     8980.0  1.962E+06  2.337E+09
       900     8990.0  1.982E+06  2.357E+09
       901     9000.0  2.019E+06  2.377E+09
       902     9010.0  2.030E+06  2.398E+09
       903     9020.0  2.011E+06  2.418E+09
       904     9030.0  2.049E+06  2.438E+09
       905     9040.0  2.115E+06  2.459E+09
       906     9050.0  2.091E+06  2.480E+09
       907     9060.0  2.055E+06  2.501E+09
       908     9070.0  2.140E+06  2.522E+09
       909     9080.0  2.173E+06  2.544E+09
       910     9090.0  2.113E+06  2.565E+09
       911     9100.0  2.159E+06  2.587E+09
       912     9110.0  2.227E+06  2.609E+09
       913     9120.0  2.186E+06  2.631E+09
       914     9130.0  2.187E+06  2.653E+09
       915     9140.0  2.240E+06  2.675E+09
       916     9150.0  2.270E+06  2.698E+09
       917     9160.0  2.266E+06  2.720E+09
       918     9170.0  2.266E+06  2.743E+09
       919     9180.0  2.298E+06  2.766E+09
       920     9190.0  2.338E+06  2.789E+09
       921     9200.0  2.350E+06  2.813E+09
       922     9210.0  2.335E+06  2.836E+09
       923     9220.0  2.377E+06  2.860E+09
       924     9230.0  2.434E+06  2.884E+09
       925     9240.0  2.417E+06  2.909E+09
       926     9250.0  2.370E+06  2.932E+09
       927     9260.0  2.461E+06  2.957E+09
       928     9270.0  2.501E+06  2.982E+09
       929     9280.0  2.448E+06  3.006E+09
       930     9290.0  2.492E+06  3.031E+09
       931     9300.0  2.584E+06  3.057E+09
       932     9310.0  2.539E+06  3.083E+09
       933     9320.0  2.505E+06  3.108E+09
       934     9330.0  2.602E+06  3.134E+09
       935     9340.0  2.625E+06  3.160E+09
       936     9350.0  2.628E+06  3.186E+09
       937     9360.0  2.611E+06  3.212E+09
       938     9370.0  2.660E+06  3.239E+09
       939     9380.0  2.710E+06  3.266E+09
       940     9390.0  2.713E+06  3.293E+09
       941     9400.0  2.699E+06  3.320E+09
       942     9410.0  2.740E+06  3.348E+09
       943     9420.0  2.787E+06  3.375E+09
       944     9430.0  2.777E+06  3.403E+09
       945     9440.0  2.765E+06  3.431E+09
       946     9450.0  2.865E+06  3.459E+09
       947     9460.0  2.901E+06  3.488E+09
       948     9470.0  2.836E+06  3.517E+09
       949     9480.0  2.861E+06  3.545E+09
       950     9490.0  2.985E+06  3.575E+09
       951     9500.0  2.923E+06  3.605E+09
       952     9510.0  2.891E+06  3.633E+09
       953     9520.0  2.987E+06  3.663E+09
       954     9530.0  3.013E+06  3.693E+09
       955     9540.0  3.019E+06  3.724E+09
       956     9550.0  3.046E+06  3.754E+09
       957     9560.0  3.094E+06  3.785E+09
       958     9570.0  3.121E+06  3.816E+09
       959     9580.0  3.125E+06  3.847E+09
       960     9590.0  3.110E+06  3.879E+09
       961     9600.0  3.187E+06  3.910E+09
       962     9610.0  3.225E+06  3.943E+09
       963     9620.0  3.210E+06  3.975E+09
       964     9630.0  3.197E+06  4.007E+09
       965     9640.0  3.289E+06  4.040E+09
       966     9650.0  3.354E+06  4.073E+09
       967     9660.0  3.270E+06  4.106E+09
       968     9670.0  3.306E+06  4.139E+09
       969     9680.0  3.421E+06  4.173E+09
       970     9690.0  3.384E+06  4.207E+09
       971     9700.0  3.344E+06  4.240E+09
       972     9710.0  3.468E+06  4.275E+09
       973     9720.0  3.486E+06  4.310E+09
       974     9730.0  3.461E+06  4.345E+09
       975     9740.0  3.495E+06  4.380E+09
       976     9750.0  3.554E+06  4.415E+09
       977     9760.0  3.583E+06  4.451E+09
       978     9770.0  3.603E+06  4.487E+09
       979     9780.0  3.573E+06  4.523E+09
       980     9790.0  3.631E+06  4.559E+09
       981     9800.0  3.697E+06  4.596E+09
       982     9810.0  3.711E+06  4.633E+09
       983     9820.0  3.694E+06  4.670E+09
       984     9830.0  3.795E+06  4.708E+09
       985     9840.0  3.857E+06  4.746E+09
       986     9850.0  3.760E+06  4.784E+09
       987     9860.0  3.786E+06  4.822E+09
       988     9870.0  3.935E+06  4.861E+09
       989     9880.0  3.898E+06  4.900E+09
       990     9890.0  3.841E+06  4.939E+09
       991     9900.0  3.991E+06  4.979E+09
       992     9910.0  4.029E+06  5.019E+09
       993     9920.0  3.982E+06  5.059E+09
       994     9930.0  3.996E+06  5.099E+09
       995     9940.0  4.103E+06  5.140E+09
       996     9950.0  4.106E+06  5.181E+09
       997     9960.0  4.143E+06  5.222E+09
       998     9970.0  4.140E+06  5.264E+09
       999     9980.0  4.184E+06  5.305E+09
      1000     9990.0  4.254E+06  5.348E+09
      1001    10000.0  4.263E+06  5.391E+09
      1002    10010.0  4.245E+06  5.433E+09
      1003    10020.0  4.335E+06  5.476E+09
      1004    10030.0  4.410E+06  5.520E+09
      1005    10040.0  4.303E+06  5.564E+09
      1006    10050.0  4.348E+06  5.607E+09
      1007    10060.0  4.529E+06  5.652E+09
      1008    10070.0  4.508E+06  5.697E+09
      1009    10080.0  4.400E+06  5.741E+09
      1010    10090.0  4.573E+06  5.787E+09
      1011    10100.0  4.650E+06  5.834E+09
      1012    10110.0  4.542E+06  5.879E+09
      1013    10120.0  4.600E+06  5.925E+09
      1014    10130.0  4.708E+06  5.972E+09
      1015    10140.0  4.704E+06  6.019E+09
      1016    10150.0  4.710E+06  6.066E+09
      1017    10160.0  4.790E+06  6.114E+09
      1018    10170.0  4.835E+06  6.162E+09
      1019    10180.0  4.866E+06  6.211E+09
      1020    10190.0  4.886E+06  6.260E+09
      1021    10200.0  4.871E+06  6.309E+09
      1022    10210.0  4.976E+06  6.358E+09
      1023    10220.0  5.053E+06  6.409E+09
      1024    10230.0  5.001E+06  6.459E+09
      1025    10240.0  4.992E+06  6.509E+09
      1026    10250.0  5.167E+06  6.561E+09
      1027    10260.0  5.192E+06  6.613E+09
      1028    10270.0  5.054E+06  6.663E+09
      1029    10280.0  5.238E+06  6.715E+09
      1030    10290.0  5.317E+06  6.769E+09
      1031    10300.0  5.201E+06  6.821E+09
      1032    10310.0  5.248E+06  6.873E+09
      1033    10320.0  5.428E+06  6.927E+09
      1034    10330.0  5.393E+06  6.981E+09
      1035    10340.0  5.396E+06  7.035E+09
      1036    10350.0  5.477E+06  7.090E+09
      1037    10360.0  5.547E+06  7.146E+09
      1038    10370.0  5.554E+06  7.201E+09
      1039    10380.0  5.596E+06  7.257E+09
      1040    10390.0  5.595E+06  7.313E+09
      1041    10400.0  5.652E+06  7.369E+09
      1042    10410.0  5.752E+06  7.427E+09
      1043    10420.0  5.725E+06  7.484E+09
      1044    10430.0  5.741E+06  7.542E+09
      1045    10440.0  5.919E+06  7.601E+09
      1046    10450.0  5.965E+06  7.661E+09
      1047    10460.0  5.796E+06  7.718E+09
      1048    10470.0  5.938E+06  7.778E+09
      1049    10480.0  6.119E+06  7.839E+09
      1050    10490.0  5.993E+06  7.899E+09
      1051    10500.0  6.014E+06  7.959E+09
      1052    10510.0  6.209E+06  8.021E+09
      1053    10520.0  6.185E+06  8.083E+09
      1054    10530.0  6.137E+06  8.144E+09
      1055    10540.0  6.254E+06  8.207E+09
      1056    10550.0  6.364E+06  8.271E+09
      1057    10560.0  6.336E+06  8.334E+09
      1058    10570.0  6.369E+06  8.398E+09
      1059    10580.0  6.411E+06  8.462E+09
      1060    10590.0  6.495E+06  8.527E+09
      1061    10600.0  6.584E+06  8.593E+09
      1062    10610.0  6.570E+06  8.658E+09
      1063    10620.0  6.578E+06  8.724E+09
      1064    10630.0  6.727E+06  8.791E+09
      1065    10640.0  6.797E+06  8.859E+09
      1066    10650.0  6.628E+06  8.926E+09
      1067    10660.0  6.787E+06  8.993E+09
      1068    10670.0  6.949E+06  9.063E+09
      1069    10680.0  6.884E+06  9.132E+09
      1070    10690.0  6.842E+06  9.200E+09
      1071    10700.0  7.124E+06  9.271E+09
      1072    10710.0  7.108E+06  9.342E+09
      1073    10720.0  6.968E+06  9.412E+09
      1074    10730.0  7.152E+06  9.484E+09
      1075    10740.0  7.262E+06  9.556E+09
      1076    10750.0  7.265E+06  9.629E+09
      1077    10760.0  7.266E+06  9.702E+09
      1078    10770.0  7.340E+06  9.775E+09
      1079    10780.0  7.440E+06  9.849E+09
      1080    10790.0  7.483E+06  9.924E+09
      1081    10800.0  7.494E+06  9.999E+09
      1082    10810.0  7.524E+06  1.007E+10
      1083    10820.0  7.650E+06  1.015E+10
      1084    10830.0  7.745E+06  1.023E+10
      1085    10840.0  7.640E+06  1.030E+10
      1086    10850.0  7.765E+06  1.038E+10
      1087    10860.0  7.963E+06  1.046E+10
      1088    10870.0  7.862E+06  1.054E+10
      1089    10880.0  7.794E+06  1.062E+10
      1090    10890.0  8.112E+06  1.070E+10
      1091    10900.0  8.101E+06  1.078E+10
      1092    10910.0  7.953E+06  1.086E+10
      1093    10920.0  8.107E+06  1.094E+10
      1094    10930.0  8.272E+06  1.102E+10
      1095    10940.0  8.248E+06  1.111E+10
      1096    10950.0  8.309E+06  1.119E+10
      1097    10960.0  8.404E+06  1.127E+10
      1098    10970.0  8.476E+06  1.136E+10
      1099    10980.0  8.526E+06  1.144E+10
      1100    10990.0  8.527E+06  1.153E+10
      1101    11000.0  8.623E+06  1.162E+10
      1102    11010.0  8.704E+06  1.170E+10
      1103    11020.0  8.793E+06  1.179E+10
      1104    11030.0  8.704E+06  1.188E+10
      1105    11040.0  8.846E+06  1.197E+10
      1106    11050.0  9.090E+06  1.206E+10
      1107    11060.0  8.995E+06  1.215E+10
      1108    11070.0  8.880E+06  1.224E+10
      1109    11080.0  9.179E+06  1.233E+10
      1110    11090.0  9.237E+06  1.242E+10
      1111    11100.0  9.092E+06  1.251E+10
      1112    11110.0  9.289E+06  1.260E+10
      1113    11120.0  9.424E+06  1.270E+10
      1114    11130.0  9.390E+06  1.279E+10
      1115    11140.0  9.406E+06  1.289E+10
      1116    11150.0  9.573E+06  1.298E+10
      1117    11160.0  9.653E+06  1.308E+10
      1118    11170.0  9.698E+06  1.317E+10
      1119    11180.0  9.678E+06  1.327E+10
      1120    11190.0  9.749E+06  1.337E+10
      1121    11200.0  9.902E+06  1.347E+10
      1122    11210.0  1.004E+07  1.357E+10
      1123    11220.0  9.971E+06  1.367E+10
      1124    11230.0  1.008E+07  1.377E+10
      1125    11240.0  1.030E+07  1.387E+10
      1126    11250.0  1.022E+07  1.397E+10
      1127    11260.0  1.010E+07  1.408E+10
      1128    11270.0  1.045E+07  1.418E+10
      1129    11280.0  1.052E+07  1.428E+10
      1130    11290.0  1.034E+07  1.439E+10
      1131    11300.0  1.054E+07  1.449E+10
      1132    11310.0  1.079E+07  1.460E+10
      1133    11320.0  1.071E+07  1.471E+10
      1134    11330.0  1.066E+07  1.482E+10
      1135    11340.0  1.090E+07  1.492E+10
      1136    11350.0  1.096E+07  1.503E+10
      1137    11360.0  1.103E+07  1.514E+10
      1138    11370.0  1.107E+07  1.525E+10
      1139    11380.0  1.114E+07  1.537E+10
      1140    11390.0  1.126E+07  1.548E+10
      1141    11400.0  1.137E+07  1.559E+10
      1142    11410.0  1.132E+07  1.571E+10
      1143    11420.0  1.144E+07  1.582E+10
      1144    11430.0  1.169E+07  1.594E+10
      1145    11440.0  1.162E+07  1.605E+10
      1146    11450.0  1.149E+07  1.617E+10
      1147    11460.0  1.185E+07  1.629E+10
      1148    11470.0  1.201E+07  1.641E+10
      1149    11480.0  1.174E+07  1.652E+10
      1150    11490.0  1.195E+07  1.664E+10
      1151    11500.0  1.229E+07  1.677E+10
      1152    11510.0  1.212E+07  1.689E+10
      1153    11520.0  1.211E+07  1.701E+10
      1154    11530.0  1.236E+07  1.713E+10
      1155    11540.0  1.244E+07  1.726E+10
      1156    11550.0  1.243E+07  1.738E+10
      1157    11560.0  1.257E+07  1.751E+10
      1158    11570.0  1.272E+07  1.763E+10
      1159    11580.0  1.276E+07  1.776E+10
      1160    11590.0  1.290E+07  1.789E+10
      1161    11600.0  1.287E+07  1.802E+10
      1162    11610.0  1.298E+07  1.815E+10
      1163    11620.0  1.322E+07  1.828E+10
      1164    11630.0  1.324E+07  1.841E+10
      1165    11640.0  1.306E+07  1.854E+10
      1166    11650.0  1.342E+07  1.868E+10
      1167    11660.0  1.367E+07  1.882E+10
      1168    11670.0  1.336E+07  1.895E+10
      1169    11680.0  1.353E+07  1.908E+10
      1170    11690.0  1.388E+07  1.922E+10
      1171    11700.0  1.374E+07  1.936E+10
      1172    11710.0  1.370E+07  1.950E+10
      1173    11720.0  1.408E+07  1.964E+10
      1174    11730.0  1.413E+07  1.978E+10
      1175    11740.0  1.409E+07  1.992E+10
      1176    11750.0  1.420E+07  2.006E+10
      1177    11760.0  1.445E+07  2.021E+10
      1178    11770.0  1.444E+07  2.035E+10
      1179    11780.0  1.458E+07  2.050E+10
      1180    11790.0  1.460E+07  2.064E+10
      1181    11800.0  1.462E+07  2.079E+10
      1182    11810.0  1.491E+07  2.094E+10
      1183    11820.0  1.502E+07  2.109E+10
      1184    11830.0  1.490E+07  2.124E+10
      1185    11840.0  1.519E+07  2.139E+10
      1186    11850.0  1.550E+07  2.154E+10
      1187    11860.0  1.518E+07  2.170E+10
      1188    11870.0  1.524E+07  2.185E+10
      1189    11880.0  1.577E+07  2.201E+10
      1190    11890.0  1.568E+07  2.216E+10
      1191    11900.0  1.550E+07  2.232E+10
      1192    11910.0  1.591E+07  2.248E+10
      1193    11920.0  1.608E+07  2.264E+10
      1194    11930.0  1.590E+07  2.280E+10
      1195    11940.0  1.609E+07  2.296E+10
      1196    11950.0  1.639E+07  2.312E+10
      1197    11960.0  1.635E+07  2.329E+10
      1198    11970.0  1.644E+07  2.345E+10
      1199    11980.0  1.655E+07  2.362E+10
      1200    11990.0  1.669E+07  2.378E+10
      1201    12000.0  1.686E+07  2.395E+10
      1202    12010.0  1.700E+07  2.412E+10
      1203    12020.0  1.690E+07  2.429E+10
      1204    12030.0  1.714E+07  2.446E+10
      1205    12040.0  1.753E+07  2.464E+10
      1206    12050.0  1.722E+07  2.481E+10
      1207    12060.0  1.724E+07  2.498E+10
      1208    12070.0  1.773E+07  2.516E+10
      1209    12080.0  1.779E+07  2.534E+10
      1210    12090.0  1.750E+07  2.551E+10
      1211    12100.0  1.805E+07  2.569E+10
      1212    12110.0  1.827E+07  2.587E+10
      1213    12120.0  1.795E+07  2.605E+10
      1214    12130.0  1.813E+07  2.623E+10
      1215    12140.0  1.852E+07  2.642E+10
      1216    12150.0  1.852E+07  2.661E+10
      1217    12160.0  1.856E+07  2.679E+10
      1218    12170.0  1.871E+07  2.698E+10
      1219    12180.0  1.889E+07  2.717E+10
      1220    12190.0  1.903E+07  2.736E+10
      1221    12200.0  1.918E+07  2.755E+10
      1222    12210.0  1.919E+07  2.774E+10
      1223    12220.0  1.931E+07  2.793E+10
      1224    12230.0  1.971E+07  2.813E+10
      1225    12240.0  1.956E+07  2.833E+10
      1226    12250.0  1.953E+07  2.852E+10
      1227    12260.0  2.010E+07  2.872E+10
      1228    12270.0  2.013E+07  2.892E+10
      1229    12280.0  1.979E+07  2.912E+10
      1230    12290.0  2.029E+07  2.933E+10
      1231    12300.0  2.061E+07  2.953E+10
      1232    12310.0  2.029E+07  2.973E+10
      1233    12320.0  2.040E+07  2.994E+10
      1234    12330.0  2.089E+07  3.015E+10
      1235    12340.0  2.089E+07  3.036E+10
      1236    12350.0  2.094E+07  3.057E+10
      1237    12360.0  2.116E+07  3.078E+10
      1238    12370.0  2.139E+07  3.099E+10
      1239    12380.0  2.144E+07  3.121E+10
      1240    12390.0  2.159E+07  3.142E+10
      1241    12400.0  2.170E+07  3.164E+10
      1242    12410.0  2.177E+07  3.186E+10
      1243    12420.0  2.216E+07  3.208E+10
      1244    12430.0  2.208E+07  3.230E+10
      1245    12440.0  2.211E+07  3.252E+10
      1246    12450.0  2.266E+07  3.275E+10
      1247    12460.0  2.280E+07  3.297E+10
      1248    12470.0  2.234E+07  3.320E+10
      1249    12480.0  2.279E+07  3.343E+10
      1250    12490.0  2.326E+07  3.366E+10
      1251    12500.0  2.299E+07  3.389E+10
      1252    12510.0  2.309E+07  3.412E+10
      1253    12520.0  2.355E+07  3.435E+10
      1254    12530.0  2.362E+07  3.459E+10
      1255    12540.0  2.351E+07  3.483E+10
      1256    12550.0  2.391E+07  3.506E+10
      1257    12560.0  2.412E+07  3.531E+10
      1258    12570.0  2.418E+07  3.555E+10
      1259    12580.0  2.427E+07  3.579E+10
      1260    12590.0  2.439E+07  3.603E+10
      1261    12600.0  2.462E+07  3.628E+10
      1262    12610.0  2.500E+07  3.653E+10
      1263    12620.0  2.502E+07  3.678E+10
      1264    12630.0  2.497E+07  3.703E+10
      1265    12640.0  2.545E+07  3.728E+10
      1266    12650.0  2.570E+07  3.754E+10
      1267    12660.0  2.523E+07  3.779E+10
      1268    12670.0  2.568E+07  3.805E+10
      1269    12680.0  2.618E+07  3.831E+10
      1270    12690.0  2.588E+07  3.857E+10
      1271    12700.0  2.596E+07  3.883E+10
      1272    12710.0  2.671E+07  3.910E+10
      1273    12720.0  2.668E+07  3.937E+10
      1274    12730.0  2.649E+07  3.963E+10
      1275    12740.0  2.683E+07  3.990E+10
      1276    12750.0  2.717E+07  4.017E+10
      1277    12760.0  2.725E+07  4.044E+10
      1278    12770.0  2.743E+07  4.072E+10
      1279    12780.0  2.757E+07  4.099E+10
      1280    12790.0  2.770E+07  4.127E+10
      1281    12800.0  2.807E+07  4.155E+10
      1282    12810.0  2.814E+07  4.183E+10
      1283    12820.0  2.817E+07  4.211E+10
      1284    12830.0  2.862E+07  4.240E+10
      1285    12840.0  2.890E+07  4.269E+10
      1286    12850.0  2.844E+07  4.297E+10
      1287    12860.0  2.887E+07  4.326E+10
      1288    12870.0  2.961E+07  4.356E+10
      1289    12880.0  2.920E+07  4.385E+10
      1290    12890.0  2.918E+07  4.414E+10
      1291    12900.0  3.000E+07  4.444E+10
      1292    12910.0  3.000E+07  4.474E+10
      1293    12920.0  2.977E+07  4.504E+10
      1294    12930.0  3.018E+07  4.534E+10
      1295    12940.0  3.056E+07  4.565E+10
      1296    12950.0  3.052E+07  4.595E+10
      1297    12960.0  3.072E+07  4.626E+10
      1298    12970.0  3.116E+07  4.657E+10
      1299    12980.0  3.122E+07  4.688E+10
      1300    12990.0  3.152E+07  4.720E+10
      1301    13000.0  3.167E+07  4.751E+10
      1302    13010.0  3.165E+07  4.783E+10
      1303    13020.0  3.207E+07  4.815E+10
      1304    13030.0  3.251E+07  4.848E+10
      1305    13040.0  3.207E+07  4.880E+10
      1306    13050.0  3.249E+07  4.912E+10
      1307    13060.0  3.326E+07  4.946E+10
      1308    13070.0  3.295E+07  4.978E+10
      1309    13080.0  3.277E+07  5.011E+10
      1310    13090.0  3.364E+07  5.045E+10
      1311    13100.0  3.375E+07  5.079E+10
      1312    13110.0  3.343E+07  5.112E+10
      1313    13120.0  3.399E+07  5.146E+10
      1314    13130.0  3.444E+07  5.180E+10
      1315    13140.0  3.432E+07  5.215E+10
      1316    13150.0  3.444E+07  5.249E+10
      1317    13160.0  3.506E+07  5.284E+10
      1318    13170.0  3.506E+07  5.319E+10
      1319    13180.0  3.531E+07  5.355E+10
      1320    13190.0  3.557E+07  5.390E+10
      1321    13200.0  3.548E+07  5.426E+10
      1322    13210.0  3.594E+07  5.462E+10
      1323    13220.0  3.653E+07  5.498E+10
      1324    13230.0  3.624E+07  5.534E+10
      1325    13240.0  3.644E+07  5.571E+10
      1326    13250.0  3.736E+07  5.608E+10
      1327    13260.0  3.712E+07  5.645E+10
      1328    13270.0  3.672E+07  5.682E+10
      1329    13280.0  3.776E+07  5.720E+10
      1330    13290.0  3.805E+07  5.758E+10
      1331    13300.0  3.751E+07  5.795E+10
      1332    13310.0  3.807E+07  5.833E+10
      1333    13320.0  3.885E+07  5.872E+10
      1334    13330.0  3.853E+07  5.911E+10
      1335    13340.0  3.866E+07  5.950E+10
      1336    13350.0  3.930E+07  5.989E+10
      1337    13360.0  3.939E+07  6.028E+10
      1338    13370.0  3.954E+07  6.068E+10
      1339    13380.0  3.991E+07  6.108E+10
      1340    13390.0  4.013E+07  6.148E+10
      1341    13400.0  4.029E+07  6.188E+10
      1342    13410.0  4.088E+07  6.229E+10
      1343    13420.0  4.076E+07  6.270E+10
      1344    13430.0  4.085E+07  6.311E+10
      1345    13440.0  4.186E+07  6.352E+10
      1346    13450.0  4.172E+07  6.394E+10
      1347    13460.0  4.119E+07  6.435E+10
      1348    13470.0  4.215E+07  6.477E+10
      1349    13480.0  4.280E+07  6.520E+10
      1350    13490.0  4.211E+07  6.562E+10
      1351    13500.0  4.274E+07  6.605E+10
      1352    13510.0  4.361E+07  6.649E+10
      1353    13520.0  4.320E+07  6.692E+10
      1354    13530.0  4.314E+07  6.735E+10
      1355    13540.0  4.408E+07  6.779E+10
      1356    13550.0  4.424E+07  6.823E+10
      1357    13560.0  4.423E+07  6.868E+10
      1358    13570.0  4.458E+07  6.912E+10
      1359    13580.0  4.502E+07  6.957E+10
      1360    13590.0  4.519E+07  7.002E+10
      1361    13600.0  4.573E+07  7.048E+10
      1362    13610.0  4.588E+07  7.094E+10
      1363    13620.0  4.572E+07  7.140E+10
      1364    13630.0  4.664E+07  7.186E+10
      1365    13640.0  4.688E+07  7.233E+10
      1366    13650.0  4.635E+07  7.280E+10
      1367    13660.0  4.736E+07  7.327E+10
      1368    13670.0  4.794E+07  7.375E+10
      1369    13680.0  4.728E+07  7.422E+10
      1370    13690.0  4.765E+07  7.470E+10
      1371    13700.0  4.883E+07  7.519E+10
      1372    13710.0  4.853E+07  7.567E+10
      1373    13720.0  4.823E+07  7.615E+10
      1374    13730.0  4.927E+07  7.665E+10
      1375    13740.0  4.959E+07  7.714E+10
      1376    13750.0  4.948E+07  7.764E+10
      1377    13760.0  5.003E+07  7.814E+10
      1378    13770.0  5.056E+07  7.864E+10
      1379    13780.0  5.057E+07  7.915E+10
      1380    13790.0  5.101E+07  7.966E+10
      1381    13800.0  5.133E+07  8.017E+10
      1382    13810.0  5.126E+07  8.069E+10
      1383    13820.0  5.207E+07  8.121E+10
      1384    13830.0  5.243E+07  8.173E+10
      1385    13840.0  5.211E+07  8.225E+10
      1386    13850.0  5.286E+07  8.278E+10
      1387    13860.0  5.387E+07  8.332E+10
      1388    13870.0  5.302E+07  8.385E+10
      1389    13880.0  5.320E+07  8.438E+10
      1390    13890.0  5.457E+07  8.493E+10
      1391    13900.0  5.445E+07  8.547E+10
      1392    13910.0  5.411E+07  8.601E+10
      1393    13920.0  5.511E+07  8.656E+10
      1394    13930.0  5.564E+07  8.712E+10
      1395    13940.0  5.529E+07  8.767E+10
      1396    13950.0  5.584E+07  8.823E+10
      1397    13960.0  5.656E+07  8.880E+10
      1398    13970.0  5.660E+07  8.936E+10
      1399    13980.0  5.693E+07  8.993E+10
      1400    13990.0  5.736E+07  9.051E+10
      1401    14000.0  5.758E+07  9.108E+10
      1402    14010.0  5.819E+07  9.166E+10
      1403    14020.0  5.876E+07  9.225E+10
      1404    14030.0  5.840E+07  9.283E+10
      1405    14040.0  5.900E+07  9.342E+10
      1406    14050.0  6.015E+07  9.403E+10
      1407    14060.0  5.945E+07  9.462E+10
      1408    14070.0  5.943E+07  9.522E+10
      1409    14080.0  6.088E+07  9.582E+10
      1410    14090.0  6.083E+07  9.643E+10
      1411    14100.0  6.042E+07  9.704E+10
      1412    14110.0  6.180E+07  9.765E+10
      1413    14120.0  6.227E+07  9.828E+10
      1414    14130.0  6.188E+07  9.890E+10
      1415    14140.0  6.214E+07  9.952E+10
      1416    14150.0  6.321E+07  1.001E+11
      1417    14160.0  6.334E+07  1.008E+11
      1418    14170.0  6.360E+07  1.014E+11
      1419    14180.0  6.415E+07  1.021E+11
      1420    14190.0  6.430E+07  1.027E+11
      1421    14200.0  6.490E+07  1.034E+11
      1422    14210.0  6.560E+07  1.040E+11
      1423    14220.0  6.545E+07  1.047E+11
      1424    14230.0  6.581E+07  1.053E+11
      1425    14240.0  6.701E+07  1.060E+11
      1426    14250.0  6.643E+07  1.067E+11
      1427    14260.0  6.649E+07  1.073E+11
      1428    14270.0  6.818E+07  1.080E+11
      1429    14280.0  6.813E+07  1.087E+11
      1430    14290.0  6.745E+07  1.094E+11
      1431    14300.0  6.876E+07  1.100E+11
      1432    14310.0  6.959E+07  1.107E+11
      1433    14320.0  6.909E+07  1.114E+11
      1434    14330.0  6.941E+07  1.121E+11
      1435    14340.0  7.047E+07  1.128E+11
      1436    14350.0  7.056E+07  1.135E+11
      1437    14360.0  7.071E+07  1.142E+11
      1438    14370.0  7.181E+07  1.150E+11
      1439    14380.0  7.206E+07  1.157E+11
      1440    14390.0  7.236E+07  1.164E+11
      1441    14400.0  7.309E+07  1.171E+11
      1442    14410.0  7.295E+07  1.179E+11
      1443    14420.0  7.341E+07  1.186E+11
      1444    14430.0  7.470E+07  1.193E+11
      1445    14440.0  7.435E+07  1.201E+11
      1446    14450.0  7.431E+07  1.208E+11
      1447    14460.0  7.587E+07  1.216E+11
      1448    14470.0  7.632E+07  1.224E+11
      1449    14480.0  7.531E+07  1.231E+11
      1450    14490.0  7.659E+07  1.239E+11
      1451    14500.0  7.765E+07  1.247E+11
      1452    14510.0  7.702E+07  1.254E+11
      1453    14520.0  7.748E+07  1.262E+11
      1454    14530.0  7.889E+07  1.270E+11
      1455    14540.0  7.882E+07  1.278E+11
      1456    14550.0  7.881E+07  1.286E+11
      1457    14560.0  7.994E+07  1.294E+11
      1458    14570.0  8.032E+07  1.302E+11
      1459    14580.0  8.055E+07  1.310E+11
      1460    14590.0  8.142E+07  1.318E+11
      1461    14600.0  8.147E+07  1.326E+11
      1462    14610.0  8.172E+07  1.334E+11
      1463    14620.0  8.318E+07  1.342E+11
      1464    14630.0  8.320E+07  1.351E+11
      1465    14640.0  8.283E+07  1.359E+11
      1466    14650.0  8.455E+07  1.368E+11
      1467    14660.0  8.520E+07  1.376E+11
      1468    14670.0  8.399E+07  1.384E+11
      1469    14680.0  8.519E+07  1.393E+11
      1470    14690.0  8.670E+07  1.402E+11
      1471    14700.0  8.586E+07  1.410E+11
      1472    14710.0  8.617E+07  1.419E+11
      1473    14720.0  8.801E+07  1.428E+11
      1474    14730.0  8.798E+07  1.436E+11
      1475    14740.0  8.776E+07  1.445E+11
      1476    14750.0  8.892E+07  1.454E+11
      1477    14760.0  8.960E+07  1.463E+11
      1478    14770.0  8.964E+07  1.472E+11
      1479    14780.0  9.046E+07  1.481E+11
      1480    14790.0  9.113E+07  1.490E+11
      1481    14800.0  9.105E+07  1.499E+11
      1482    14810.0  9.240E+07  1.509E+11
      1483    14820.0  9.287E+07  1.518E+11
      1484    14830.0  9.233E+07  1.527E+11
      1485    14840.0  9.399E+07  1.536E+11
      1486    14850.0  9.490E+07  1.546E+11
      1487    14860.0  9.350E+07  1.555E+11
      1488    14870.0  9.474E+07  1.565E+11
      1489    14880.0  9.663E+07  1.574E+11
      1490    14890.0  9.590E+07  1.584E+11
      1491    14900.0  9.592E+07  1.594E+11
      1492    14910.0  9.789E+07  1.603E+11
      1493    14920.0  9.813E+07  1.613E+11
      1494    14930.0  9.732E+07  1.623E+11
      1495    14940.0  9.894E+07  1.633E+11
      1496    14950.0  9.985E+07  1.643E+11
      1497    14960.0  9.958E+07  1.653E+11
      1498    14970.0  1.003E+08  1.663E+11
      1499    14980.0  1.015E+08  1.673E+11
      1500    14990.0  1.016E+08  1.683E+11
      1501        0.0  1.000E-01  1.000E+00
      1502      170.3  3.000E+00  1.753E+02
      1503      340.7  7.533E+00  1.179E+03
      1504      511.0  1.867E+01  3.680E+03
      1505      681.4  1.307E+01  8.166E+03
      1506      851.7  8.887E+01  1.694E+04
      1507     1022.0  1.379E+02  3.161E+04
      1508     1192.4  1.421E+02  5.332E+04
      1509     1362.7  2.308E+02  8.672E+04
      1510     1533.1  3.782E+02  1.335E+05
      1511     1703.4  5.571E+02  2.038E+05
      1512     1873.7  7.490E+02  2.998E+05
      1513     2044.1  8.921E+02  4.361E+05
      1514     2214.4  1.335E+03  6.140E+05
      1515     2384.8  1.909E+03  8.651E+05
      1516     2555.1  2.464E+03  1.195E+06
      1517     2725.5  3.009E+03  1.619E+06
      1518     2895.8  3.936E+03  2.163E+06
      1519     3066.1  5.168E+03  2.881E+06
      1520     3236.5  6.376E+03  3.776E+06
      1521     3406.8  7.452E+03  4.924E+06
      1522     3577.2  9.396E+03  6.342E+06
      1523     3747.5  1.233E+04  8.158E+06
      1524     3917.8  1.508E+04  1.040E+07
      1525     4088.2  1.764E+04  1.316E+07
      1526     4258.5  2.164E+04  1.654E+07
      1527     4428.9  2.694E+04  2.074E+07
      1528     4599.2  3.208E+04  2.582E+07
      1529     4769.5  3.901E+04  3.199E+07
      1530     4939.9  4.709E+04  3.945E+07
      1531     5110.2  5.681E+04  4.910E+07
      1532     5280.6  7.400E+04  6.009E+07
      1533     5450.9  8.146E+04  7.321E+07
      1534     5621.2  1.041E+05  8.888E+07
      1535     5791.6  1.202E+05  1.076E+08
      1536     5961.9  1.434E+05  1.298E+08
      1537     6132.3  1.642E+05  1.559E+08
      1538     6302.6  2.030E+05  1.869E+08
      1539     6472.9  2.325E+05  2.234E+08
      1540     6643.3  2.714E+05  2.661E+08
      1541     6813.6  3.187E+05  3.162E+08
      1542     6984.0  3.667E+05  3.746E+08
      1543     7154.3  4.339E+05  4.431E+08
      1544     7324.6  5.070E+05  5.225E+08
      1545     7495.0  5.797E+05  6.147E+08
      1546     7665.3  6.651E+05  7.214E+08
      1547     7835.7  7.933E+05  8.454E+08
      1548     8006.0  8.871E+05  9.878E+08
      1549     8176.4  1.046E+06  1.152E+09
      1550     8346.7  1.190E+06  1.341E+09
      1551     8517.0  1.371E+06  1.559E+09
      1552     8687.4  1.522E+06  1.807E+09
      1553     8857.7  1.821E+06  2.093E+09
      1554     9028.1  2.011E+06  2.418E+09
      1555     9198.4  2.338E+06  2.789E+09
      1556     9368.7  2.611E+06  3.212E+09
      1557     9539.1  3.013E+06  3.693E+09
      1558     9709.4  3.344E+06  4.240E+09
      1559     9879.8  3.935E+06  4.861E+09
      1560    10050.1  4.348E+06  5.607E+09
      1561    10220.4  5.053E+06  6.409E+09
      1562    10390.8  5.595E+06  7.313E+09
      1563    10561.1  6.336E+06  8.334E+09
      1564    10731.5  7.152E+06  9.484E+09
      1565    10901.8  8.101E+06  1.078E+10
      1566    11072.1  8.880E+06  1.224E+10
      1567    11242.5  1.030E+07  1.387E+10
      1568    11412.8  1.132E+07  1.571E+10
      1569    11583.2  1.276E+07  1.776E+10
      1570    11753.5  1.420E+07  2.006E+10
      1571    11923.8  1.608E+07  2.264E+10
      1572    12094.2  1.750E+07  2.551E+10
      1573    12264.5  2.010E+07  2.872E+10
      1574    12434.9  2.208E+07  3.230E+10
      1575    12605.2  2.462E+07  3.628E+10
      1576    12775.6  2.743E+07  4.072E+10
      1577    12945.9  3.056E+07  4.565E+10
      1578    13116.2  3.343E+07  5.112E+10
      1579    13286.6  3.776E+07  5.720E+10
      1580    13456.9  4.172E+07  6.394E+10
      1581    13627.3  4.572E+07  7.140E+10
      1582    13797.6  5.101E+07  7.966E+10
      1583    13967.9  5.656E+07  8.880E+10
      1584    14138.3  6.188E+07  9.890E+10
      1585    14308.6  6.876E+07  1.100E+11
      1586    14479.0  7.632E+07  1.224E+11
      1587    14649.3  8.283E+07  1.359E+11
      1588    14819.6  9.240E+07  1.509E+11
      1589    14990.0  1.015E+08  1.673E+11
      1590    15160.3  1.117E+08  1.865E+11
      1591    15330.7  1.236E+08  2.065E+11
      1592    15501.0  1.339E+08  2.285E+11
      1593    15671.3  1.485E+08  2.526E+11
      1594    15841.7  1.632E+08  2.791E+11
      1595    16012.0  1.771E+08  3.080E+11
      1596    16182.4  1.947E+08  3.398E+11
      1597    16352.7  2.143E+08  3.746E+11
      1598    16523.0  2.319E+08  4.126E+11
      1599    16693.4  2.542E+08  4.542E+11
      1600    16863.7  2.809E+08  4.997E+11
      1601    17034.1  3.029E+08  5.493E+11
      1602    17204.4  3.320E+08  6.035E+11
      1603    17374.7  3.634E+08  6.626E+11
      1604    17545.1  3.936E+08  7.270E+11
      1605    17715.4  4.276E+08  7.971E+11
      1606    17885.8  4.708E+08  8.735E+11
      1607    18056.1  5.065E+08  9.566E+11
      1608    18226.5  5.536E+08  1.047E+12
      1609    18396.8  6.033E+08  1.145E+12
      1610    18567.1  6.524E+08  1.252E+12
      1611    18737.5  7.050E+08  1.368E+12
      1612    18907.8  7.723E+08  1.494E+12
      1613    19078.2  8.306E+08  1.630E+12
      1614    19248.5  9.028E+08  1.778E+12
      1615    19418.8  9.843E+08  1.939E+12
      1616    19589.2  1.059E+09  2.112E+12
      1617    19759.5  1.141E+09  2.300E+12
      1618    19929.9  1.246E+09  2.504E+12
      1619    20100.2  1.340E+09  2.737E+12
      1620    20270.5  1.465E+09  2.976E+12
      1621    20440.9  1.573E+09  3.234E+12
      1622    20611.2  1.696E+09  3.513E+12
      1623    20781.6  1.841E+09  3.814E+12
      1624    20951.9  1.980E+09  4.139E+12
      1625    21122.2  2.124E+09  4.489E+12
      1626    21292.6  2.307E+09  4.866E+12
      1627    21462.9  2.479E+09  5.273E+12
      1628    21633.3  2.663E+09  5.712E+12
      1629    21803.6  2.882E+09  6.183E+12
      1630    21973.9  3.093E+09  6.691E+12
      1631    22144.3  3.309E+09  7.237E+12
      1632    22314.6  3.584E+09  7.825E+12
      1633    22485.0  3.842E+09  8.457E+12
      1634    22655.3  4.116E+09  9.135E+12
      1635    22825.7  4.447E+09  9.864E+12
      1636    22996.0  4.769E+09  1.065E+13
      1637    23166.3  5.085E+09  1.149E+13
      1638    23336.7  5.485E+09  1.239E+13
      1639    23507.0  5.881E+09  1.335E+13
      1640    23677.4  6.277E+09  1.439E+13
      1641    23847.7  6.761E+09  1.550E+13
      1642    24018.0  7.242E+09  1.669E+13
      1643    24188.4  7.713E+09  1.796E+13
      1644    24358.7  8.286E+09  1.933E+13
      1645    24529.1  8.876E+09  2.079E+13
      1646    24699.4  9.443E+09  2.235E+13
      1647    24869.7  1.015E+10  2.402E+13
      1648    25040.1  1.086E+10  2.591E+13
      1649    25210.4  1.163E+10  2.783E+13
      1650    25380.8  1.244E+10  2.987E+13
      1651    25551.1  1.321E+10  3.206E+13
      1652    25721.4  1.414E+10  3.439E+13
      1653    25891.8  1.513E+10  3.688E+13
      1654    26062.1  1.607E+10  3.954E+13
      1655    26232.5  1.719E+10  4.237E+13
      1656    26402.8  1.835E+10  4.539E+13
      1657    26573.1  1.948E+10  4.861E+13
      1658    26743.5  2.077E+10  5.204E+13
      1659    26913.8  2.219E+10  5.570E+13
      1660    27084.2  2.354E+10  5.959E+13
      1661    27254.5  2.511E+10  6.374E+13
      1662    27424.8  2.679E+10  6.815E+13
      1663    27595.2  2.839E+10  7.284E+13
      1664    27765.5  3.021E+10  7.784E+13
      1665    27935.9  3.220E+10  8.315E+13
      1666    28106.2  3.412E+10  8.880E+13
      1667    28276.6  3.629E+10  9.480E+13
      1668    28446.9  3.868E+10  1.012E+14
      1669    28617.2  4.094E+10  1.079E+14
      1670    28787.6  4.349E+10  1.151E+14
      1671    28957.9  4.627E+10  1.228E+14
      1672    29128.3  4.895E+10  1.309E+14
      1673    29298.6  5.196E+10  1.395E+14
      1674    29468.9  5.529E+10  1.486E+14
      1675    29639.3  5.851E+10  1.583E+14
      1676    29809.6  6.197E+10  1.685E+14
      1677    29980.0  6.588E+10  1.794E+14
      1678    30150.3  6.981E+10  1.916E+14
      1679    30320.6  7.415E+10  2.039E+14
      1680    30491.0  7.840E+10  2.169E+14
      1681    30661.3  8.297E+10  2.306E+14
      1682    30831.7  8.804E+10  2.452E+14
      1683    31002.0  9.307E+10  2.606E+14
      1684    31172.3  9.830E+10  2.769E+14
      1685    31342.7  1.043E+11  2.941E+14
      1686    31513.0  1.101E+11  3.124E+14
      1687    31683.4  1.163E+11  3.316E+14
      1688    31853.7  1.233E+11  3.520E+14
      1689    32024.0  1.301E+11  3.736E+14
      1690    32194.4  1.373E+11  3.964E+14
      1691    32364.7  1.453E+11  4.204E+14
      1692    32535.1  1.534E+11  4.458E+14
      1693    32705.4  1.617E+11  4.727E+14
      1694    32875.8  1.711E+11  5.010E+14
      1695    33046.1  1.805E+11  5.309E+14
      1696    33216.4  1.902E+11  5.625E+14
      1697    33386.8  2.010E+11  5.958E+14
      1698    33557.1  2.119E+11  6.309E+14
      1699    33727.5  2.231E+11  6.680E+14
      1700    33897.8  2.357E+11  7.070E+14
      1701    34068.1  2.485E+11  7.482E+14
      1702    34238.5  2.615E+11  7.916E+14
      1703    34408.8  2.759E+11  8.374E+14
      1704    34579.2  2.906E+11  8.855E+14
      1705    34749.5  3.057E+11  9.363E+14
      1706    34919.8  3.222E+11  9.898E+14
      1707    35090.2  3.399E+11  1.049E+15
      1708    35260.5  3.582E+11  1.109E+15
      1709    35430.9  3.773E+11  1.171E+15
      1710    35601.2  3.963E+11  1.237E+15
      1711    35771.5  4.173E+11  1.307E+15
      1712    35941.9  4.391E+11  1.379E+15
      1713    36112.2  4.612E+11  1.456E+15
      1714    36282.6  4.853E+11  1.537E+15
      1715    36452.9  5.107E+11  1.621E+15
      1716    36623.2  5.359E+11  1.710E+15
      1717    36793.6  5.634E+11  1.804E+15
      1718    36963.9  5.923E+11  1.902E+15
      1719    37134.3  6.215E+11  2.006E+15
      1720    37304.6  6.530E+11  2.114E+15
      1721    37474.9  6.864E+11  2.228E+15
      1722    37645.3  7.200E+11  2.348E+15
      1723    37815.6  7.558E+11  2.473E+15
      1724    37986.0  7.939E+11  2.605E+15
      1725    38156.3  8.321E+11  2.744E+15
      1726    38326.7  8.733E+11  2.889E+15
      1727    38497.0  9.169E+11  3.041E+15
      1728    38667.3  9.610E+11  3.201E+15
      1729    38837.7  1.008E+12  3.369E+15
      1730    39008.0  1.057E+12  3.544E+15
      1731    39178.4  1.108E+12  3.729E+15
      1732    39348.7  1.161E+12  3.922E+15
      1733    39519.0  1.218E+12  4.124E+15
      1734    39689.4  1.275E+12  4.336E+15
      1735    39859.7  1.336E+12  4.558E+15
      1736    40030.1  1.403E+12  4.805E+15
      1737    40200.4  1.469E+12  5.050E+15
      1738    40370.7  1.539E+12  5.306E+15
      1739    40541.1  1.611E+12  5.574E+15
      1740    40711.4  1.686E+12  5.854E+15
      1741    40881.8  1.766E+12  6.148E+15
      1742    41052.1  1.847E+12  6.455E+15
      1743    41222.4  1.932E+12  6.777E+15
      1744    41392.8  2.023E+12  7.114E+15
      1745    41563.1  2.115E+12  7.466E+15
      1746    41733.5  2.211E+12  7.834E+15
      1747    41903.8  2.314E+12  8.219E+15
      1748    42074.1  2.419E+12  8.622E+15
      1749    42244.5  2.528E+12  9.043E+15
      1750    42414.8  2.644E+12  9.483E+15
      1751    42585.2  2.763E+12  9.943E+15
      1752    42755.5  2.886E+12  1.042E+16
      1753    42925.9  3.016E+12  1.093E+16
      1754    43096.2  3.152E+12  1.145E+16
      1755    43266.5  3.290E+12  1.200E+16
      1756    43436.9  3.438E+12  1.257E+16
      1757    43607.2  3.590E+12  1.317E+16
      1758    43777.6  3.746E+12  1.379E+16
      1759    43947.9  3.912E+12  1.445E+16
      1760    44118.2  4.084E+12  1.513E+16
      1761    44288.6  4.262E+12  1.584E+16
      1762    44458.9  4.448E+12  1.658E+16
      1763    44629.3  4.643E+12  1.735E+16
      1764    44799.6  4.840E+12  1.816E+16
      1765    44969.9  5.050E+12  1.900E+16
      1766    45140.3  5.279E+12  1.993E+16
      1767    45310.6  5.506E+12  2.085E+16
      1768    45481.0  5.743E+12  2.181E+16
      1769    45651.3  5.986E+12  2.280E+16
      1770    45821.6  6.240E+12  2.384E+16
      1771    45992.0  6.506E+12  2.493E+16
      1772    46162.3  6.777E+12  2.606E+16
      1773    46332.7  7.063E+12  2.724E+16
      1774    46503.0  7.362E+12  2.846E+16
      1775    46673.3  7.668E+12  2.974E+16
      1776    46843.7  7.987E+12  3.108E+16
      1777    47014.0  8.321E+12  3.246E+16
      1778    47184.4  8.664E+12  3.391E+16
      1779    47354.7  9.020E+12  3.541E+16
      1780    47525.1  9.395E+12  3.698E+16
      1781    47695.4  9.779E+12  3.861E+16
      1782    47865.7  1.018E+13  4.031E+16
      1783    48036.1  1.060E+13  4.208E+16
      1784    48206.4  1.103E+13  4.392E+16
      1785    48376.8  1.147E+13  4.583E+16
      1786    48547.1  1.194E+13  4.782E+16
      1787    48717.4  1.242E+13  4.990E+16
      1788    48887.8  1.292E+13  5.205E+16
      1789    49058.1  1.344E+13  5.429E+16
      1790    49228.5  1.397E+13  5.663E+16
      1791    49398.8  1.453E+13  5.905E+16
      1792    49569.1  1.511E+13  6.157E+16
      1793    49739.5  1.571E+13  6.419E+16
      1794    49909.8  1.632E+13  6.692E+16
      1795    50080.2  1.701E+13  6.992E+16
      1796    50250.5  1.767E+13  7.287E+16
      1797    50420.8  1.837E+13  7.594E+16
      1798    50591.2  1.909E+13  7.913E+16
      1799    50761.5  1.983E+13  8.244E+16
      1800    50931.9  2.060E+13  8.588E+16
      1801    51102.2  2.140E+13  8.945E+16
      1802    51272.5  2.222E+13  9.317E+16
      1803    51442.9  2.308E+13  9.702E+16
      1804    51613.2  2.397E+13  1.010E+17
      1805    51783.6  2.488E+13  1.052E+17
      1806    51953.9  2.583E+13  1.095E+17
      1807    52124.2  2.682E+13  1.140E+17
      1808    52294.6  2.784E+13  1.186E+17
      1809    52464.9  2.889E+13  1.235E+17
      1810    52635.3  2.999E+13  1.285E+17
      1811    52805.6  3.111E+13  1.337E+17
      1812    52976.0  3.228E+13  1.391E+17
      1813    53146.3  3.349E+13  1.447E+17
      1814    53316.6  3.474E+13  1.505E+17
      1815    53487.0  3.604E+13  1.565E+17
      1816    53657.3  3.738E+13  1.627E+17
      1817    53827.7  3.876E+13  1.692E+17
      1818    53998.0  4.019E+13  1.759E+17
      1819    54168.3  4.168E+13  1.829E+17
      1820    54338.7  4.320E+13  1.901E+17
      1821    54509.0  4.479E+13  1.976E+17
      1822    54679.4  4.643E+13  2.054E+17
      1823    54849.7  4.813E+13  2.134E+17
      1824    55020.0  4.998E+13  2.222E+17
      1825    55190.4  5.179E+13  2.309E+17
      1826    55360.7  5.366E+13  2.399E+17
      1827    55531.1  5.561E+13  2.492E+17
      1828    55701.4  5.760E+13  2.588E+17
      1829    55871.7  5.967E+13  2.688E+17
      1830    56042.1  6.181E+13  2.791E+17
      1831    56212.4  6.402E+13  2.898E+17
      1832    56382.8  6.629E+13  3.009E+17
      1833    56553.1  6.865E+13  3.124E+17
      1834    56723.4  7.108E+13  3.243E+17
      1835    56893.8  7.359E+13  3.366E+17
      1836    57064.1  7.620E+13  3.493E+17
      1837    57234.5  7.887E+13  3.625E+17
      1838    57404.8  8.163E+13  3.762E+17
      1839    57575.2  8.449E+13  3.903E+17
      1840    57745.5  8.744E+13  4.049E+17
      1841    57915.8  9.048E+13  4.201E+17
      1842    58086.2  9.363E+13  4.357E+17
      1843    58256.5  9.687E+13  4.519E+17
      1844    58426.9  1.002E+14  4.687E+17
      1845    58597.2  1.037E+14  4.860E+17
      1846    58767.5  1.072E+14  5.040E+17
      1847    58937.9  1.109E+14  5.226E+17
      1848    59108.2  1.147E+14  5.417E+17
      1849    59278.6  1.186E+14  5.616E+17
      1850    59448.9  1.226E+14  5.821E+17
      1851    59619.2  1.268E+14  6.033E+17
      1852    59789.6  1.311E+14  6.253E+17
      1853    59959.9  1.355E+14  6.480E+17
      1854    60130.3  1.404E+14  6.728E+17
      1855    60300.6  1.451E+14  6.971E+17
      1856    60470.9  1.500E+14  7.222E+17
      1857    60641.3  1.550E+14  7.482E+17
      1858    60811.6  1.601E+14  7.750E+17
      1859    60982.0  1.655E+14  8.027E+17
      1860    61152.3  1.710E+14  8.313E+17
      1861    61322.6  1.767E+14  8.609E+17
      1862    61493.0  1.825E+14  8.914E+17
      1863    61663.3  1.885E+14  9.230E+17
      1864    61833.7  1.947E+14  9.556E+17
      1865    62004.0  2.011E+14  9.893E+17
      1866    62174.3  2.077E+14  1.024E+18
      1867    62344.7  2.145E+14  1.060E+18
      1868    62515.0  2.215E+14  1.097E+18
      1869    62685.4  2.287E+14  1.135E+18
      1870    62855.7  2.361E+14  1.175E+18
      1871    63026.1  2.437E+14  1.216E+18
      1872    63196.4  2.516E+14  1.258E+18
      1873    63366.7  2.597E+14  1.301E+18
      1874    63537.1  2.680E+14  1.346E+18
      1875    63707.4  2.766E+14  1.393E+18
      1876    63877.8  2.855E+14  1.440E+18
      1877    64048.1  2.946E+14  1.490E+18
      1878    64218.4  3.039E+14  1.541E+18
      1879    64388.8  3.136E+14  1.593E+18
      1880    64559.1  3.235E+14  1.647E+18
      1881    64729.5  3.338E+14  1.703E+18
      1882    64899.8  3.443E+14  1.761E+18
      1883    65070.1  3.558E+14  1.824E+18
      1884    65240.5  3.669E+14  1.885E+18
      1885    65410.8  3.784E+14  1.949E+18
      1886    65581.2  3.902E+14  2.014E+18
      1887    65751.5  4.025E+14  2.082E+18
      1888    65921.8  4.149E+14  2.151E+18
      1889    66092.2  4.278E+14  2.223E+18
      1890    66262.5  4.411E+14  2.297E+18
      1891    66432.9  4.547E+14  2.373E+18
      1892    66603.2  4.687E+14  2.452E+18
      1893    66773.5  4.832E+14  2.533E+18
      1894    66943.9  4.980E+14  2.616E+18
      1895    67114.2  5.132E+14  2.702E+18
      1896    67284.6  5.290E+14  2.791E+18
      1897    67454.9  5.451E+14  2.882E+18
      1898    67625.3  5.617E+14  2.976E+18
      1899    67795.6  5.787E+14  3.073E+18
      1900    67965.9  5.962E+14  3.173E+18
      1901    68136.3  6.143E+14  3.276E+18
      1902    68306.6  6.328E+14  3.382E+18
      1903    68477.0  6.519E+14  3.492E+18
      1904    68647.3  6.714E+14  3.604E+18
      1905    68817.6  6.916E+14  3.720E+18
      1906    68988.0  7.122E+14  3.840E+18
      1907    69158.3  7.335E+14  3.962E+18
      1908    69328.7  7.553E+14  4.089E+18
      1909    69499.0  7.778E+14  4.220E+18
      1910    69669.3  8.008E+14  4.354E+18
      1911    69839.7  8.245E+14  4.492E+18
      1912    70010.0  8.503E+14  4.643E+18
      1913    70180.4  8.754E+14  4.790E+18
      1914    70350.7  9.011E+14  4.941E+18
      1915    70521.0  9.275E+14  5.096E+18
      1916    70691.4  9.547E+14  5.257E+18
      1917    70861.7  9.826E+14  5.421E+18
      1918    71032.1  1.011E+15  5.591E+18
      1919    71202.4  1.041E+15  5.765E+18
      1920    71372.7  1.071E+15  5.945E+18
      1921    71543.1  1.102E+15  6.130E+18
      1922    71713.4  1.134E+15  6.320E+18
      1923    71883.8  1.166E+15  6.516E+18
      1924    72054.1  1.200E+15  6.717E+18
      1925    72224.4  1.234E+15  6.924E+18
      1926    72394.8  1.270E+15  7.137E+18
      1927    72565.1  1.306E+15  7.356E+18
      1928    72735.5  1.343E+15  7.582E+18
      1929    72905.8  1.382E+15  7.813E+18
      1930    73076.2  1.421E+15  8.052E+18
      1931    73246.5  1.461E+15  8.297E+18
      1932    73416.8  1.503E+15  8.549E+18
      1933    73587.2  1.545E+15  8.808E+18
      1934    73757.5  1.589E+15  9.075E+18
      1935    73927.9  1.633E+15  9.349E+18
      1936    74098.2  1.679E+15  9.631E+18
      1937    74268.5  1.726E+15  9.920E+18
      1938    74438.9  1.775E+15  1.022E+19
      1939    74609.2  1.824E+15  1.052E+19
      1940    74779.6  1.875E+15  1.084E+19
      1941    74949.9  1.927E+15  1.116E+19
      1942    75120.2  1.984E+15  1.151E+19
      1943    75290.6  2.039E+15  1.186E+19
      1944    75460.9  2.095E+15  1.221E+19
      1945    75631.3  2.153E+15  1.257E+19
      1946    75801.6  2.212E+15  1.294E+19
      1947    75971.9  2.273E+15  1.332E+19
      1948    76142.3  2.335E+15  1.371E+19
      1949    76312.6  2.399E+15  1.412E+19
      1950    76483.0  2.464E+15  1.453E+19
      1951    76653.3  2.531E+15  1.496E+19
      1952    76823.6  2.600E+15  1.539E+19
      1953    76994.0  2.671E+15  1.584E+19
      1954    77164.3  2.743E+15  1.630E+19
      1955    77334.7  2.817E+15  1.677E+19
      1956    77505.0  2.894E+15  1.726E+19
      1957    77675.4  2.971E+15  1.776E+19
      1958    77845.7  3.051E+15  1.827E+19
      1959    78016.0  3.133E+15  1.880E+19
      1960    78186.4  3.217E+15  1.934E+19
      1961    78356.7  3.303E+15  1.989E+19
      1962    78527.1  3.391E+15  2.046E+19
      1963    78697.4  3.482E+15  2.105E+19
      1964    78867.7  3.574E+15  2.165E+19
      1965    79038.1  3.669E+15  2.226E+19
      1966    79208.4  3.766E+15  2.289E+19
      1967    79378.8  3.865E+15  2.354E+19
      1968    79549.1  3.967E+15  2.421E+19
      1969    79719.4  4.072E+15  2.489E+19
      1970    79889.8  4.179E+15  2.560E+19
      1971    80060.1  4.295E+15  2.636E+19
      1972    80230.5  4.407E+15  2.710E+19
      1973    80400.8  4.522E+15  2.786E+19
      1974    80571.1  4.640E+15  2.864E+19
      1975    80741.5  4.761E+15  2.944E+19
      1976    80911.8  4.885E+15  3.026E+19
      1977    81082.2  5.011E+15  3.110E+19
      1978    81252.5  5.141E+15  3.196E+19
      1979    81422.8  5.274E+15  3.285E+19
      1980    81593.2  5.410E+15  3.376E+19
      1981    81763.5  5.549E+15  3.469E+19
      1982    81933.9  5.692E+15  3.565E+19
      1983    82104.2  5.837E+15  3.663E+19
      1984    82274.5  5.987E+15  3.763E+19
      1985    82444.9  6.140E+15  3.866E+19
      1986    82615.2  6.296E+15  3.972E+19
      1987    82785.6  6.456E+15  4.081E+19
      1988    82955.9  6.621E+15  4.192E+19
      1989    83126.3  6.788E+15  4.306E+19
      1990    83296.6  6.960E+15  4.423E+19
      1991    83466.9  7.136E+15  4.543E+19
      1992    83637.3  7.316E+15  4.666E+19
      1993    83807.6  7.500E+15  4.792E+19
      1994    83978.0  7.689E+15  4.921E+19
      1995    84148.3  7.882E+15  5.053E+19
      1996    84318.6  8.079E+15  5.189E+19
      1997    84489.0  8.281E+15  5.328E+19
      1998    84659.3  8.487E+15  5.471E+19
      1999    84829.7  8.699E+15  5.617E+19
      2000    85000.0  8.928E+15  5.776E+19
